Time (ms),Main Avg Current (mA)
0.00,4.592
0.20,4.568
0.40,4.48
0.60,4.502
0.80,4.518
1.00,4.47
1.20,4.51
1.40,4.536
1.60,4.566
1.80,4.504
2.00,4.538
2.20,4.522
2.40,4.464
2.60,4.526
2.80,4.522
3.00,4.54
3.20,4.59
3.40,4.42
3.60,4.538
3.80,4.466
4.00,4.546
4.20,4.552
4.40,4.54
4.60,4.518
4.80,4.514
5.00,4.45
5.20,4.532
5.40,4.538
5.60,4.514
5.80,4.492
6.00,4.5
6.20,4.56
6.40,4.51
6.60,4.544
6.80,4.48
7.00,4.522
7.20,4.5
7.40,4.554
7.60,4.494
7.80,4.536
8.00,4.514
8.20,4.472
8.40,4.504
8.60,4.536
8.80,4.478
9.00,4.54
9.20,4.46
9.40,4.474
9.60,4.558
9.80,4.546
10.00,4.524
10.20,4.504
10.40,4.508
10.60,4.532
10.80,4.51
11.00,4.514
11.20,4.504
11.40,4.518
11.60,4.548
11.80,4.518
12.00,4.532
12.20,4.526
12.40,4.532
12.60,4.456
12.80,4.504
13.00,4.532
13.20,4.508
13.40,4.566
13.60,4.568
13.80,4.472
14.00,4.522
14.20,4.536
14.40,4.522
14.60,4.522
14.80,4.516
15.00,4.51
15.20,4.522
15.40,4.526
15.60,4.514
15.80,4.466
16.00,4.576
16.20,4.514
16.40,4.536
16.60,4.5
16.80,4.544
17.00,4.526
17.20,4.502
17.40,4.518
17.60,4.558
17.80,4.558
18.00,4.492
18.20,4.474
18.40,4.524
18.60,4.502
18.80,4.47
19.00,4.56
19.20,4.602
19.40,4.508
19.60,4.548
19.80,4.464
20.00,4.494
20.20,4.548
20.40,4.502
20.60,4.514
20.80,4.51
21.00,4.524
21.20,4.606
21.40,4.426
21.60,4.508
21.80,4.538
22.00,4.532
22.20,4.46
22.40,4.508
22.60,4.548
22.80,4.544
23.00,4.514
23.20,4.532
23.40,4.48
23.60,4.53
23.80,4.53
24.00,4.522
24.20,4.5
24.40,4.45
24.60,4.524
24.80,4.524
25.00,4.548
25.20,4.53
25.40,4.472
25.60,4.496
25.80,4.57
26.00,4.516
26.20,4.54
26.40,4.526
26.60,4.504
26.80,4.502
27.00,4.504
27.20,4.504
27.40,4.458
27.60,4.538
27.80,4.516
28.00,4.522
28.20,4.526
28.40,4.596
28.60,4.5
28.80,4.536
29.00,4.494
29.20,4.582
29.40,4.466
29.60,4.588
29.80,4.5
30.00,4.504
30.20,4.482
30.40,4.516
30.60,4.482
30.80,4.554
31.00,4.514
31.20,4.486
31.40,4.494
31.60,4.544
31.80,4.538
32.00,4.5
32.20,4.552
32.40,4.488
32.60,4.566
32.80,4.544
33.00,4.45
33.20,4.422
33.40,4.548
33.60,4.544
33.80,4.56
34.00,4.536
34.20,4.482
34.40,4.488
34.60,4.532
34.80,4.51
35.00,4.54
35.20,4.544
35.40,4.514
35.60,4.532
35.80,4.544
36.00,4.474
36.20,4.482
36.40,4.56
36.60,4.5
36.80,4.5
37.00,4.508
37.20,4.474
37.40,4.57
37.60,4.514
37.80,4.54
38.00,4.514
38.20,4.502
38.40,4.51
38.60,4.486
38.80,4.562
39.00,4.544
39.20,4.596
39.40,4.46
39.60,4.48
39.80,4.47
40.00,4.502
40.20,4.554
40.40,4.596
40.60,4.544
40.80,4.492
41.00,4.46
41.20,4.488
41.40,4.482
41.60,4.488
41.80,4.536
42.00,4.602
42.20,4.554
42.40,4.526
42.60,4.554
42.80,4.502
43.00,4.47
43.20,4.514
43.40,4.51
43.60,4.526
43.80,4.508
44.00,4.522
44.20,4.486
44.40,4.514
44.60,4.544
44.80,4.516
45.00,4.532
45.20,4.522
45.40,4.48
45.60,4.526
45.80,4.568
46.00,4.548
46.20,4.448
46.40,4.562
46.60,4.488
46.80,4.514
47.00,4.502
47.20,4.502
47.40,4.54
47.60,4.576
47.80,4.472
48.00,4.524
48.20,4.53
48.40,4.544
48.60,4.45
48.80,4.524
49.00,4.568
49.20,4.496
49.40,4.488
49.60,4.544
49.80,4.536
50.00,4.548
50.20,4.494
50.40,4.48
50.60,4.518
50.80,4.494
51.00,4.538
51.20,4.552
51.40,4.516
51.60,4.516
51.80,4.524
52.00,4.488
52.20,4.53
52.40,4.592
52.60,4.538
52.80,4.412
53.00,4.514
53.20,4.492
53.40,4.474
53.60,4.54
53.80,4.518
54.00,4.574
54.20,4.56
54.40,4.458
54.60,4.552
54.80,4.51
55.00,4.504
55.20,4.504
55.40,4.524
55.60,4.51
55.80,4.56
56.00,4.548
56.20,4.47
56.40,4.494
56.60,4.524
56.80,4.538
57.00,4.504
57.20,4.59
57.40,4.45
57.60,4.448
57.80,4.548
58.00,4.5
58.20,4.552
58.40,4.536
58.60,4.566
58.80,4.518
59.00,4.474
59.20,4.504
59.40,4.538
59.60,4.536
59.80,4.51
60.00,4.516
60.20,4.494
60.40,4.526
60.60,4.516
60.80,4.514
61.00,4.548
61.20,4.492
61.40,4.524
61.60,4.532
61.80,4.516
62.00,4.554
62.20,4.502
62.40,4.482
62.60,4.532
62.80,4.482
63.00,4.532
63.20,4.466
63.40,4.582
63.60,4.514
63.80,4.48
64.00,4.504
64.20,4.562
64.40,4.518
64.60,4.488
64.80,4.478
65.00,4.494
65.20,4.532
65.40,4.596
65.60,4.548
65.80,4.482
66.00,4.442
66.20,4.51
66.40,4.538
66.60,4.588
66.80,4.522
67.00,4.502
67.20,4.508
67.40,4.458
67.60,4.53
67.80,4.562
68.00,4.554
68.20,4.584
68.40,4.504
68.60,4.464
68.80,4.552
69.00,4.5
69.20,4.504
69.40,4.508
69.60,4.51
69.80,4.524
70.00,4.554
70.20,4.508
70.40,4.478
70.60,4.464
70.80,4.546
71.00,4.51
71.20,4.504
71.40,4.516
71.60,4.544
71.80,4.496
72.00,4.508
72.20,4.61
72.40,4.51
72.60,4.436
72.80,4.54
73.00,4.532
73.20,4.54
73.40,4.538
73.60,4.524
73.80,4.514
74.00,4.522
74.20,4.5
74.40,4.486
74.60,4.546
74.80,4.524
75.00,4.544
75.20,4.582
75.40,4.426
75.60,4.482
75.80,4.518
76.00,4.546
76.20,4.522
76.40,4.496
76.60,4.522
76.80,4.522
77.00,4.48
77.20,4.532
77.40,4.524
77.60,4.494
77.80,4.57
78.00,4.504
78.20,4.46
78.40,4.492
78.60,4.504
78.80,4.516
79.00,4.544
79.20,4.57
79.40,4.518
79.60,4.522
79.80,4.488
80.00,4.514
80.20,4.552
80.40,4.486
80.60,4.466
80.80,4.524
81.00,4.518
81.20,4.532
81.40,4.536
81.60,4.566
81.80,4.486
82.00,4.494
82.20,4.536
82.40,4.53
82.60,4.496
82.80,4.486
83.00,4.474
83.20,4.504
83.40,4.56
83.60,4.548
83.80,4.54
84.00,4.526
84.20,4.494
84.40,4.494
84.60,4.516
84.80,4.524
85.00,4.56
85.20,4.522
85.40,4.51
85.60,4.51
85.80,4.524
86.00,4.53
86.20,4.466
86.40,4.554
86.60,4.554
86.80,4.502
87.00,4.48
87.20,4.452
87.40,4.536
87.60,4.518
87.80,4.54
88.00,4.552
88.20,4.508
88.40,4.548
88.60,4.5
88.80,4.494
89.00,4.496
89.20,4.526
89.40,4.544
89.60,4.558
89.80,4.526
90.00,4.496
90.20,4.516
90.40,4.536
90.60,4.532
90.80,4.456
91.00,4.53
91.20,4.492
91.40,4.508
91.60,4.522
91.80,4.504
92.00,4.552
92.20,4.536
92.40,4.574
92.60,4.532
92.80,4.464
93.00,4.428
93.20,4.548
93.40,4.504
93.60,4.576
93.80,4.518
94.00,4.51
94.20,4.448
94.40,4.474
94.60,4.56
94.80,4.516
95.00,4.518
95.20,4.48
95.40,4.5
95.60,4.57
95.80,4.524
96.00,4.504
96.20,4.58
96.40,4.516
96.60,4.496
96.80,4.492
97.00,4.494
97.20,4.494
97.40,4.488
97.60,4.604
97.80,4.53
98.00,4.538
98.20,4.54
98.40,4.458
98.60,4.474
98.80,4.518
99.00,4.554
99.20,4.532
99.40,4.53
99.60,4.486
99.80,4.526
100.00,4.526
100.20,4.5
100.40,4.5
100.60,4.516
100.80,4.51
101.00,4.554
101.20,4.526
101.40,4.516
101.60,4.488
101.80,4.516
102.00,4.538
102.20,4.518
102.40,4.522
102.60,4.494
102.80,4.544
103.00,4.522
103.20,4.538
103.40,4.48
103.60,4.554
103.80,4.516
104.00,4.526
104.20,4.42
104.40,4.504
104.60,4.548
104.80,4.574
105.00,4.54
105.20,4.508
105.40,4.47
105.60,4.516
105.80,4.53
106.00,4.448
106.20,4.566
106.40,4.538
106.60,4.522
106.80,4.47
107.00,4.54
107.20,4.524
107.40,4.574
107.60,4.472
107.80,4.422
108.00,4.532
108.20,4.552
108.40,4.524
108.60,4.496
108.80,4.546
109.00,4.548
109.20,4.532
109.40,4.47
109.60,4.494
109.80,4.492
110.00,4.508
110.20,4.508
110.40,4.496
110.60,4.53
110.80,4.57
111.00,4.538
111.20,4.57
111.40,4.386
111.60,4.546
111.80,4.552
112.00,4.536
112.20,4.554
112.40,4.448
112.60,4.548
112.80,4.532
113.00,4.516
113.20,4.47
113.40,4.486
113.60,4.53
113.80,4.558
114.00,4.526
114.20,4.48
114.40,4.532
114.60,4.5
114.80,4.486
115.00,4.554
115.20,4.538
115.40,4.464
115.60,4.492
115.80,4.494
116.00,4.546
116.20,4.548
116.40,4.516
116.60,4.504
116.80,4.554
117.00,4.458
117.20,4.478
117.40,4.526
117.60,4.508
117.80,4.492
118.00,4.538
118.20,4.552
118.40,4.518
118.60,4.54
118.80,4.492
119.00,4.504
119.20,4.552
119.40,4.514
119.60,4.54
119.80,4.5
120.00,4.504
120.20,4.582
120.40,4.532
120.60,4.5
120.80,4.516
121.00,4.494
121.20,4.514
121.40,4.472
121.60,4.566
121.80,4.464
122.00,4.466
122.20,4.576
122.40,4.56
122.60,4.492
122.80,4.522
123.00,4.492
123.20,4.536
123.40,4.524
123.60,4.538
123.80,4.502
124.00,4.45
124.20,4.536
124.40,4.522
124.60,4.546
124.80,4.522
125.00,4.526
125.20,4.474
125.40,4.488
125.60,4.496
125.80,4.538
126.00,4.536
126.20,4.56
126.40,4.51
126.60,4.546
126.80,4.548
127.00,4.524
127.20,4.5
127.40,4.422
127.60,4.502
127.80,4.56
128.00,4.532
128.20,4.496
128.40,4.5
128.60,4.47
128.80,4.518
129.00,4.53
129.20,4.604
129.40,4.452
129.60,4.516
129.80,4.592
130.00,4.488
130.20,4.486
130.40,4.524
130.60,4.488
130.80,4.514
131.00,4.51
131.20,4.544
131.40,4.562
131.60,4.5
131.80,4.456
132.00,4.552
132.20,4.514
132.40,4.51
132.60,4.492
132.80,4.514
133.00,4.526
133.20,4.516
133.40,4.492
133.60,4.57
133.80,4.514
134.00,4.47
134.20,4.546
134.40,4.568
134.60,4.502
134.80,4.486
135.00,4.514
135.20,4.502
135.40,4.514
135.60,4.554
135.80,4.46
136.00,4.504
136.20,4.544
136.40,4.536
136.60,4.56
136.80,4.492
137.00,4.486
137.20,4.514
137.40,4.536
137.60,4.452
137.80,4.548
138.00,4.518
138.20,4.5
138.40,4.456
138.60,4.54
138.80,4.524
139.00,4.532
139.20,4.532
139.40,4.518
139.60,4.5
139.80,4.5
140.00,4.488
140.20,4.502
140.40,4.508
140.60,4.53
140.80,4.554
141.00,4.464
141.20,4.504
141.40,4.54
141.60,4.576
141.80,4.504
142.00,4.548
142.20,4.458
142.40,4.504
142.60,4.566
142.80,4.47
143.00,4.414
143.20,4.526
143.40,4.554
143.60,4.45
143.80,4.576
144.00,4.538
144.20,4.532
144.40,4.518
144.60,4.472
144.80,4.464
145.00,4.51
145.20,4.526
145.40,4.544
145.60,4.56
145.80,4.47
146.00,4.488
146.20,4.574
146.40,4.508
146.60,4.492
146.80,4.494
147.00,4.526
147.20,4.574
147.40,4.452
147.60,4.514
147.80,4.56
148.00,4.536
148.20,4.466
148.40,4.486
148.60,4.496
148.80,4.526
149.00,4.526
149.20,4.518
149.40,4.56
149.60,4.524
149.80,4.584
150.00,4.508
150.20,4.494
150.40,4.514
150.60,4.524
150.80,4.496
151.00,4.46
151.20,4.54
151.40,4.514
151.60,4.496
151.80,4.514
152.00,4.538
152.20,4.502
152.40,4.558
152.60,4.492
152.80,4.48
153.00,4.554
153.20,4.546
153.40,4.508
153.60,4.522
153.80,4.526
154.00,4.514
154.20,4.518
154.40,4.466
154.60,4.488
154.80,4.522
155.00,4.51
155.20,4.554
155.40,4.47
155.60,4.53
155.80,4.502
156.00,4.518
156.20,4.532
156.40,4.574
156.60,4.502
156.80,4.488
157.00,4.51
157.20,4.574
157.40,4.508
157.60,4.548
157.80,4.486
158.00,4.536
158.20,4.496
158.40,4.514
158.60,4.458
158.80,4.504
159.00,4.472
159.20,4.574
159.40,4.532
159.60,4.504
159.80,4.508
160.00,4.486
160.20,4.516
160.40,4.562
160.60,4.48
160.80,4.494
161.00,4.526
161.20,4.526
161.40,4.544
161.60,4.5
161.80,4.518
162.00,4.508
162.20,4.574
162.40,4.486
162.60,4.482
162.80,4.536
163.00,4.538
163.20,4.548
163.40,4.486
163.60,4.472
163.80,4.518
164.00,4.58
164.20,4.508
164.40,4.57
164.60,4.478
164.80,4.54
165.00,4.464
165.20,4.596
165.40,4.43
165.60,4.552
165.80,4.5
166.00,4.5
166.20,4.526
166.40,4.472
166.60,4.478
166.80,4.51
167.00,4.544
167.20,4.488
167.40,4.548
167.60,4.558
167.80,4.532
168.00,4.588
168.20,4.456
168.40,4.482
168.60,4.538
168.80,4.524
169.00,4.5
169.20,4.51
169.40,4.494
169.60,4.536
169.80,4.504
170.00,4.514
170.20,4.504
170.40,4.456
170.60,4.502
170.80,4.548
171.00,4.502
171.20,4.502
171.40,4.552
171.60,4.48
171.80,4.452
172.00,4.558
172.20,4.58
172.40,4.544
172.60,4.492
172.80,4.522
173.00,4.472
173.20,4.504
173.40,4.516
173.60,4.522
173.80,4.536
174.00,4.508
174.20,4.53
174.40,4.544
174.60,4.458
174.80,4.496
175.00,4.502
175.20,4.5
175.40,4.532
175.60,4.562
175.80,4.554
176.00,4.526
176.20,4.448
176.40,4.43
176.60,4.522
176.80,4.57
177.00,4.566
177.20,4.514
177.40,4.518
177.60,4.492
177.80,4.526
178.00,4.524
178.20,4.448
178.40,4.532
178.60,4.488
178.80,4.488
179.00,4.568
179.20,4.59
179.40,4.54
179.60,4.478
179.80,4.458
180.00,4.516
180.20,4.544
180.40,4.548
180.60,4.5
180.80,4.51
181.00,4.57
181.20,4.486
181.40,4.48
181.60,4.504
181.80,4.536
182.00,4.474
182.20,4.5
182.40,4.51
182.60,4.51
182.80,4.552
183.00,4.536
183.20,4.568
183.40,4.478
183.60,4.57
183.80,4.45
184.00,4.508
184.20,4.522
184.40,4.562
184.60,4.5
184.80,4.536
185.00,4.544
185.20,4.502
185.40,4.546
185.60,4.492
185.80,4.48
186.00,4.568
186.20,4.494
186.40,4.524
186.60,4.494
186.80,4.486
187.00,4.526
187.20,4.554
187.40,4.526
187.60,4.482
187.80,4.47
188.00,4.51
188.20,4.522
188.40,4.53
188.60,4.516
188.80,4.51
189.00,4.5
189.20,4.526
189.40,4.544
189.60,4.548
189.80,4.544
190.00,4.478
190.20,4.482
190.40,4.5
190.60,4.51
190.80,4.486
191.00,4.546
191.20,4.554
191.40,4.526
191.60,4.488
191.80,4.516
192.00,4.42
192.20,4.516
192.40,4.502
192.60,4.522
192.80,4.56
193.00,4.482
193.20,4.486
193.40,4.53
193.60,4.532
193.80,4.53
194.00,4.53
194.20,4.496
194.40,4.522
194.60,4.504
194.80,4.544
195.00,4.56
195.20,4.46
195.40,4.442
195.60,4.538
195.80,4.504
196.00,4.554
196.20,4.496
196.40,4.494
196.60,4.544
196.80,4.538
197.00,4.536
197.20,4.448
197.40,4.474
197.60,4.5
197.80,4.554
198.00,4.508
198.20,4.536
198.40,4.51
198.60,4.514
198.80,4.552
199.00,4.494
199.20,4.53
199.40,4.552
199.60,4.494
199.80,4.524
200.00,4.522
200.20,4.526
200.40,4.474
200.60,4.526
200.80,4.488
201.00,4.532
201.20,4.554
201.40,4.478
201.60,4.496
201.80,4.482
202.00,4.524
202.20,4.508
202.40,4.57
202.60,4.524
202.80,4.554
203.00,4.518
203.20,4.496
203.40,4.444
203.60,4.554
203.80,4.576
204.00,4.548
204.20,4.47
204.40,4.524
204.60,4.466
204.80,4.482
205.00,4.522
205.20,4.532
205.40,4.522
205.60,4.472
205.80,4.58
206.00,4.524
206.20,4.504
206.40,4.486
206.60,4.516
206.80,4.526
207.00,4.518
207.20,4.57
207.40,4.526
207.60,4.488
207.80,4.504
208.00,4.524
208.20,4.504
208.40,4.466
208.60,4.5
208.80,4.558
209.00,4.554
209.20,4.566
209.40,4.548
209.60,4.802
209.80,5.89
210.00,5.494
210.20,5.566
210.40,5.59
210.60,5.852
210.80,5.902
211.00,5.874
211.20,5.872
211.40,5.864
211.60,5.846
211.80,5.876
212.00,5.844
212.20,5.888
212.40,5.88
212.60,5.888
212.80,5.874
213.00,5.854
213.20,5.872
213.40,5.896
213.60,5.886
213.80,5.832
214.00,5.838
214.20,5.83
214.40,5.828
214.60,5.822
214.80,5.86
215.00,5.864
215.20,5.824
215.40,5.886
215.60,5.864
215.80,5.896
216.00,5.846
216.20,5.864
216.40,5.83
216.60,5.872
216.80,5.802
217.00,5.876
217.20,5.89
217.40,5.842
217.60,5.814
217.80,5.832
218.00,5.888
218.20,5.858
218.40,5.85
218.60,5.86
218.80,5.85
219.00,5.852
219.20,5.934
219.40,5.798
219.60,5.822
219.80,5.868
220.00,5.828
220.20,5.864
220.40,5.816
220.60,5.766
220.80,5.876
221.00,5.91
221.20,5.854
221.40,5.85
221.60,5.842
221.80,5.88
222.00,5.836
222.20,5.872
222.40,5.858
222.60,5.86
222.80,5.868
223.00,5.83
223.20,5.838
223.40,5.83
223.60,5.86
223.80,5.886
224.00,5.806
224.20,5.888
224.40,5.864
224.60,5.866
224.80,5.866
225.00,5.832
225.20,5.874
225.40,5.882
225.60,5.846
225.80,5.858
226.00,5.846
226.20,5.868
226.40,5.842
226.60,5.86
226.80,5.83
227.00,5.824
227.20,5.852
227.40,5.83
227.60,5.844
227.80,5.838
228.00,5.902
228.20,5.83
228.40,5.872
228.60,5.824
228.80,5.83
229.00,5.852
229.20,5.842
229.40,5.88
229.60,5.822
229.80,5.882
230.00,5.816
230.20,5.844
230.40,5.89
230.60,5.846
230.80,5.86
231.00,5.864
231.20,5.814
231.40,5.83
231.60,5.838
231.80,5.882
232.00,5.824
232.20,5.858
232.40,5.854
232.60,5.858
232.80,5.846
233.00,5.86
233.20,5.82
233.40,5.844
233.60,5.868
233.80,5.844
234.00,5.82
234.20,5.898
234.40,5.876
234.60,5.846
234.80,5.88
235.00,5.81
235.20,5.912
235.40,5.898
235.60,5.828
235.80,5.86
236.00,5.858
236.20,5.824
236.40,5.89
236.60,5.876
236.80,5.836
237.00,5.794
237.20,5.94
237.40,5.802
237.60,5.844
237.80,5.864
238.00,5.82
238.20,5.886
238.40,5.824
238.60,5.824
238.80,5.92
239.00,5.872
239.20,5.882
239.40,5.876
239.60,5.844
239.80,5.868
240.00,5.802
240.20,5.85
240.40,5.836
240.60,5.852
240.80,5.88
241.00,5.836
241.20,5.842
241.40,5.866
241.60,5.852
241.80,5.832
242.00,5.846
242.20,5.838
242.40,5.852
242.60,5.822
242.80,5.85
243.00,5.846
243.20,5.858
243.40,5.844
243.60,5.88
243.80,5.828
244.00,5.846
244.20,5.836
244.40,5.89
244.60,5.872
244.80,5.854
245.00,5.85
245.20,5.83
245.40,5.882
245.60,5.898
245.80,5.836
246.00,5.814
246.20,5.842
246.40,5.838
246.60,5.828
246.80,5.896
247.00,5.832
247.20,5.83
247.40,5.854
247.60,5.896
247.80,5.85
248.00,5.864
248.20,5.824
248.40,5.854
248.60,5.814
248.80,5.85
249.00,5.894
249.20,5.798
249.40,5.816
249.60,5.838
249.80,5.886
250.00,5.832
250.20,5.842
250.40,5.85
250.60,5.91
250.80,5.908
251.00,5.838
251.20,5.822
251.40,5.89
251.60,5.86
251.80,5.808
252.00,5.874
252.20,5.832
252.40,5.876
252.60,5.83
252.80,5.872
253.00,5.81
253.20,5.864
253.40,5.866
253.60,5.836
253.80,5.836
254.00,5.858
254.20,5.86
254.40,5.802
254.60,5.836
254.80,5.86
255.00,5.858
255.20,5.954
255.40,5.74
255.60,5.86
255.80,5.85
256.00,5.83
256.20,5.874
256.40,5.852
256.60,5.824
256.80,5.872
257.00,5.846
257.20,5.852
257.40,5.874
257.60,5.816
257.80,5.802
258.00,5.872
258.20,5.912
258.40,5.822
258.60,5.838
258.80,5.86
259.00,5.798
259.20,5.838
259.40,5.864
259.60,5.88
259.80,5.794
260.00,5.824
260.20,5.858
260.40,5.822
260.60,5.854
260.80,5.832
261.00,5.868
261.20,5.85
261.40,5.824
261.60,5.778
261.80,5.894
262.00,5.838
262.20,5.898
262.40,5.842
262.60,5.858
262.80,5.82
263.00,5.854
263.20,5.89
263.40,5.83
263.60,5.854
263.80,5.832
264.00,5.836
264.20,5.858
264.40,5.864
264.60,5.882
264.80,5.888
265.00,5.858
265.20,5.836
265.40,5.82
265.60,5.88
265.80,5.846
266.00,5.894
266.20,5.824
266.40,5.858
266.60,5.864
266.80,5.82
267.00,5.82
267.20,5.824
267.40,5.83
267.60,5.828
267.80,5.872
268.00,5.846
268.20,5.832
268.40,5.89
268.60,5.86
268.80,5.846
269.00,5.854
269.20,5.876
269.40,5.844
269.60,5.854
269.80,5.844
270.00,5.854
270.20,5.876
270.40,5.824
270.60,5.824
270.80,5.842
271.00,5.852
271.20,5.846
271.40,5.852
271.60,5.844
271.80,5.874
272.00,5.824
272.20,5.866
272.40,5.894
272.60,5.766
272.80,5.872
273.00,5.866
273.20,5.904
273.40,5.77
273.60,5.846
273.80,5.854
274.00,5.886
274.20,5.838
274.40,5.852
274.60,5.858
274.80,5.852
275.00,5.842
275.20,5.868
275.40,5.822
275.60,5.824
275.80,5.864
276.00,5.874
276.20,5.874
276.40,5.824
276.60,5.832
276.80,5.874
277.00,5.83
277.20,5.846
277.40,5.846
277.60,5.866
277.80,5.864
278.00,5.876
278.20,5.816
278.40,5.864
278.60,5.844
278.80,5.89
279.00,5.854
279.20,5.846
279.40,5.85
279.60,5.82
279.80,5.866
280.00,5.852
280.20,5.88
280.40,5.828
280.60,5.89
280.80,5.852
281.00,5.85
281.20,5.82
281.40,5.854
281.60,5.846
281.80,5.864
282.00,5.882
282.20,5.824
282.40,5.872
282.60,5.836
282.80,5.864
283.00,5.836
283.20,5.854
283.40,5.832
283.60,5.82
283.80,5.854
284.00,5.85
284.20,5.876
284.40,5.822
284.60,5.896
284.80,5.836
285.00,5.814
285.20,5.846
285.40,5.85
285.60,5.822
285.80,5.85
286.00,5.85
286.20,5.842
286.40,5.864
286.60,5.91
286.80,5.822
287.00,5.832
287.20,5.83
287.40,5.89
287.60,5.888
287.80,5.82
288.00,5.882
288.20,5.844
288.40,5.866
288.60,5.824
288.80,5.868
289.00,5.86
289.20,5.852
289.40,5.858
289.60,5.824
289.80,5.872
290.00,5.904
290.20,5.832
290.40,5.886
290.60,5.838
290.80,5.852
291.20,5.852
291.40,5.874
291.60,5.832
291.80,5.824
292.00,5.858
292.20,5.854
292.40,5.88
292.60,5.81
292.80,5.868
293.00,5.888
293.20,5.852
293.40,5.868
293.60,5.826
293.80,5.852
294.00,5.848
294.20,5.848
294.40,5.892
294.60,5.854
294.80,5.824
295.00,5.818
295.20,5.862
295.40,5.882
295.60,5.824
295.80,5.88
296.00,5.826
296.20,5.816
296.40,5.852
296.60,5.8
296.80,5.858
297.00,5.868
297.20,5.862
297.40,5.858
297.60,5.836
297.80,5.866
298.00,5.896
298.20,5.848
298.40,5.846
298.60,5.814
298.80,5.83
299.00,5.844
299.20,5.838
299.40,5.858
299.60,5.868
299.80,5.854
300.00,5.808
300.20,5.86
300.40,5.896
300.60,5.836
300.80,5.876
301.00,5.876
301.20,5.876
301.40,5.836
301.60,5.832
301.80,5.868
302.00,5.852
302.20,5.83
302.40,5.852
302.60,5.89
302.80,5.848
303.00,5.84
303.20,5.796
303.40,5.832
303.60,5.876
303.80,5.86
304.00,5.826
304.20,5.814
304.40,5.858
304.60,5.896
304.80,5.86
305.00,5.846
305.20,5.87
305.40,5.86
305.60,5.882
305.80,5.84
306.00,5.832
306.20,5.836
306.40,5.918
306.60,5.75
306.80,5.832
307.00,5.866
307.20,5.83
307.40,5.866
307.60,5.836
307.80,5.822
308.00,5.874
308.20,5.874
308.40,5.832
308.60,5.832
308.80,5.836
309.00,5.802
309.20,5.876
309.40,5.866
309.60,5.818
309.80,5.876
310.00,5.866
310.20,5.854
310.40,5.838
310.60,5.892
310.80,5.832
311.00,5.854
311.20,5.844
311.40,5.83
311.60,5.87
311.80,5.854
312.00,5.822
312.20,5.824
312.40,5.86
312.60,5.89
312.80,5.848
313.00,5.836
313.20,5.814
313.40,5.87
313.60,5.838
313.80,5.836
314.00,5.836
314.20,5.848
314.40,5.888
314.60,5.81
314.80,5.868
315.00,5.846
315.20,5.87
315.40,5.83
315.60,5.888
315.80,5.826
316.00,5.822
316.20,5.836
316.40,5.892
316.60,5.832
316.80,5.88
317.00,5.814
317.20,5.868
317.40,5.862
317.60,5.818
317.80,5.858
318.00,5.832
318.20,5.83
318.40,5.882
318.60,5.844
318.80,5.848
319.00,5.858
319.20,5.83
319.40,5.8
319.60,5.866
319.80,5.83
320.00,5.902
320.20,5.866
320.40,5.818
320.60,5.906
320.80,5.904
321.00,5.792
321.20,5.83
321.40,5.848
321.60,5.862
321.80,5.832
322.00,5.876
322.20,5.846
322.40,5.846
322.60,5.824
322.80,5.818
323.00,5.874
323.20,5.862
323.40,5.84
323.60,5.826
323.80,5.852
324.00,5.868
324.20,5.868
324.40,5.95
324.60,5.814
324.80,5.838
325.00,5.808
325.20,5.84
325.40,5.826
325.60,5.866
325.80,5.814
326.00,5.852
326.20,5.826
326.40,5.838
326.60,5.86
326.80,5.888
327.00,5.912
327.20,5.832
327.40,5.794
327.60,5.844
327.80,5.844
328.00,5.838
328.20,5.882
328.40,5.866
328.60,5.808
328.80,5.824
329.00,5.892
329.20,5.838
329.40,5.814
329.60,5.848
329.80,5.81
330.00,5.854
330.20,5.844
330.40,5.906
330.60,5.866
330.80,5.832
331.00,5.832
331.20,5.848
331.40,5.888
331.60,5.86
331.80,5.83
332.00,5.868
332.20,5.846
332.40,5.902
332.60,5.854
332.80,5.78
333.00,5.866
333.20,5.83
333.40,5.844
333.60,5.866
333.80,5.848
334.00,5.868
334.20,5.824
334.40,5.816
334.60,5.89
334.80,5.89
335.00,5.824
335.20,5.854
335.40,5.882
335.60,5.826
335.80,5.88
336.00,5.854
336.20,5.848
336.40,5.816
336.60,5.818
336.80,5.822
337.00,5.858
337.20,5.826
337.40,5.86
337.60,5.84
337.80,5.836
338.00,5.824
338.20,5.888
338.40,5.882
338.60,5.814
338.80,5.89
339.00,5.81
339.20,5.882
339.40,5.818
339.60,5.838
339.80,5.868
340.00,5.844
340.20,5.838
340.40,5.83
340.60,5.838
340.80,5.874
341.00,5.826
341.20,5.844
341.40,5.836
341.60,5.836
341.80,5.868
342.00,5.836
342.20,5.83
342.40,5.984
342.60,5.748
342.80,5.83
343.00,5.87
343.20,5.896
343.40,5.866
343.60,5.824
343.80,5.816
344.00,5.838
344.20,5.832
344.40,5.838
344.60,5.876
344.80,5.838
345.00,5.832
345.20,5.846
345.40,5.88
345.60,5.824
345.80,5.844
346.00,5.87
346.20,5.874
346.40,5.87
346.60,5.844
346.80,5.844
347.00,5.826
347.20,5.88
347.40,5.848
347.60,5.882
347.80,5.826
348.00,5.866
348.20,5.858
348.40,5.858
348.60,5.824
348.80,5.852
349.00,5.818
349.20,5.808
349.40,5.846
349.60,5.902
349.80,5.884
350.00,5.836
350.20,5.844
350.40,5.846
350.60,5.876
350.80,5.804
351.00,5.83
351.20,5.854
351.40,5.86
351.60,5.866
351.80,5.868
352.00,5.84
352.20,5.84
352.40,5.832
352.60,5.862
352.80,5.824
353.00,5.832
353.20,5.862
353.40,5.88
353.60,5.854
353.80,5.81
354.00,5.832
354.20,5.824
354.40,5.884
354.60,5.854
354.80,5.882
355.00,5.888
355.20,5.848
355.40,5.838
355.60,5.824
355.80,5.896
356.00,5.848
356.20,5.852
356.40,5.824
356.60,5.862
356.80,5.824
357.00,5.818
357.20,5.868
357.40,5.858
357.60,5.792
357.80,5.88
358.00,5.89
358.20,5.824
358.40,5.826
358.60,5.87
358.80,5.814
359.00,5.88
359.20,5.854
359.40,5.83
359.60,5.826
359.80,5.844
360.00,5.858
360.20,5.86
360.40,5.92
360.60,5.772
360.80,5.846
361.00,5.844
361.20,5.87
361.40,5.838
361.60,5.862
361.80,5.846
362.00,5.802
362.20,5.854
362.40,5.874
362.60,5.862
362.80,5.838
363.00,5.832
363.20,5.884
363.40,5.866
363.60,5.87
363.80,5.844
364.00,5.814
364.20,5.854
364.40,5.86
364.60,5.814
364.80,5.862
365.00,5.808
365.20,5.854
365.40,5.844
365.60,5.848
365.80,5.846
366.00,5.84
366.20,5.914
366.40,5.846
366.60,5.796
366.80,5.846
367.00,5.838
367.20,5.862
367.40,5.836
367.60,5.83
367.80,5.838
368.00,5.87
368.20,5.836
368.40,5.896
368.60,5.844
368.80,5.84
369.00,5.846
369.20,5.854
369.40,5.786
369.60,5.882
369.80,5.816
370.00,5.826
370.20,5.86
370.40,5.838
370.60,5.832
370.80,5.838
371.00,5.854
371.20,5.832
371.40,5.876
371.60,5.83
371.80,5.844
372.00,5.874
372.20,5.818
372.40,5.86
372.60,5.896
372.80,5.858
373.00,5.832
373.20,5.86
373.40,5.866
373.60,5.824
373.80,5.83
374.00,5.846
374.20,5.822
374.40,5.848
374.60,5.892
374.80,5.838
375.00,5.816
375.20,5.814
375.40,5.884
375.60,5.888
375.80,5.854
376.00,5.846
376.20,5.808
376.40,5.862
376.60,5.84
376.80,5.846
377.00,5.884
377.20,5.862
377.40,5.802
377.60,5.874
377.80,5.858
378.00,5.86
378.20,5.866
378.40,5.882
378.60,5.786
378.80,5.888
379.00,5.84
379.20,5.83
379.40,5.852
379.60,5.836
379.80,5.84
380.00,5.868
380.20,5.846
380.40,5.844
380.60,5.868
380.80,5.832
381.00,5.862
381.20,5.846
381.40,5.838
381.60,5.81
381.80,5.83
382.00,5.844
382.20,5.83
382.40,5.824
382.60,5.858
382.80,5.858
383.00,5.87
383.20,5.844
383.40,5.824
383.60,5.836
383.80,5.83
384.00,5.858
384.20,5.84
384.40,5.88
384.60,5.868
384.80,5.822
385.00,5.868
385.20,5.826
385.40,5.854
385.60,5.858
385.80,5.858
386.00,5.858
386.20,5.848
386.40,5.86
386.60,5.81
386.80,5.876
387.00,5.858
387.20,5.874
387.40,5.848
387.60,5.84
387.80,5.818
388.00,5.858
388.20,5.87
388.40,5.816
388.60,5.848
388.80,5.852
389.00,5.832
389.20,5.892
389.40,5.838
389.60,5.846
389.80,5.854
390.00,5.824
390.20,5.852
390.40,5.824
390.60,5.838
390.80,5.898
391.00,5.844
391.20,5.876
391.40,5.816
391.60,5.846
391.80,5.852
392.00,5.862
392.20,5.86
392.40,5.868
392.60,5.844
392.80,5.844
393.00,5.816
393.20,5.838
393.40,5.848
393.60,5.854
393.80,5.84
394.00,5.87
394.20,5.868
394.40,5.816
394.60,5.892
394.80,5.802
395.00,5.858
395.20,5.858
395.40,5.868
395.60,5.86
395.80,5.838
396.00,5.844
396.20,5.832
396.40,5.956
396.60,5.76
396.80,5.868
397.00,5.848
397.20,5.83
397.40,5.854
397.60,5.816
397.80,5.846
398.00,5.824
398.20,5.824
398.40,5.854
398.60,5.844
398.80,5.802
399.00,5.874
399.20,5.854
399.40,5.854
399.60,5.854
399.80,5.826
400.00,5.854
400.20,5.848
400.40,5.866
400.60,5.866
400.80,5.814
401.00,5.846
401.20,5.884
401.40,5.844
401.60,5.838
401.80,5.84
402.00,5.852
402.20,5.858
402.40,5.882
402.60,5.822
402.80,5.888
403.00,5.858
403.20,5.814
403.40,5.858
403.60,5.87
403.80,5.852
404.00,5.818
404.20,5.832
404.40,5.854
404.60,5.866
404.80,5.83
405.00,5.814
405.20,5.89
405.40,5.876
405.60,5.852
405.80,5.84
406.00,5.816
406.20,5.832
406.40,5.854
406.60,5.826
406.80,5.858
407.00,5.836
407.20,5.844
407.40,5.858
407.60,5.87
407.80,5.84
408.00,5.862
408.20,5.844
408.40,5.852
408.60,5.868
408.80,5.818
409.00,5.866
409.20,5.832
409.40,5.862
409.60,5.83
409.80,5.836
410.00,5.866
410.20,5.86
410.40,5.838
410.60,5.852
410.80,5.846
411.00,5.86
411.20,5.846
411.40,5.88
411.60,5.876
411.80,5.838
412.00,5.83
412.20,5.84
412.40,5.854
412.60,5.858
412.80,5.86
413.00,5.814
413.20,5.846
413.40,5.866
413.60,5.844
413.80,5.846
414.00,5.814
414.20,5.824
414.40,5.976
414.60,5.814
414.80,5.81
415.00,5.854
415.20,5.868
415.40,5.824
415.60,5.858
415.80,5.854
416.00,5.836
416.20,5.852
416.40,5.852
416.60,5.8
416.80,5.836
417.00,5.868
417.20,5.824
417.40,5.874
417.60,5.89
417.80,5.802
418.00,5.866
418.20,5.826
418.40,5.866
418.60,5.826
418.80,5.868
419.00,5.862
419.20,5.804
419.40,5.866
419.60,5.844
419.80,5.824
420.00,5.874
420.20,5.826
420.40,5.818
420.60,5.844
420.80,5.846
421.00,5.848
421.20,5.84
421.40,5.804
421.60,5.858
421.80,5.818
422.00,5.882
422.20,5.858
422.40,5.826
422.60,5.816
422.80,5.81
423.00,5.848
423.20,5.832
423.40,5.858
423.60,5.83
423.80,5.884
424.00,5.846
424.20,5.898
424.40,5.836
424.60,5.874
424.80,5.844
425.00,5.854
425.20,5.84
425.40,5.832
425.60,5.796
425.80,5.884
426.00,5.88
426.20,5.866
426.40,5.802
426.60,5.808
426.80,5.788
427.00,5.914
427.20,5.822
427.40,5.838
427.60,5.91
427.80,5.796
428.00,5.846
428.20,5.84
428.40,5.824
428.60,5.902
428.80,5.874
429.00,5.862
429.20,5.884
429.40,5.818
429.60,5.836
429.80,5.876
430.00,5.832
430.20,5.866
430.40,5.84
430.60,5.838
430.80,5.858
431.00,5.876
431.20,5.822
431.40,5.844
431.60,5.822
431.80,5.868
432.00,5.814
432.20,5.838
432.40,5.94
432.60,5.766
432.80,5.898
433.00,5.836
433.20,5.84
433.40,5.874
433.60,5.824
433.80,5.832
434.00,5.814
434.20,5.852
434.40,5.836
434.60,5.84
434.80,5.848
435.00,5.848
435.20,5.868
435.40,5.844
435.60,5.83
435.80,5.888
436.00,5.848
436.20,5.846
436.40,5.822
436.60,5.836
436.80,5.86
437.00,5.814
437.20,5.89
437.40,5.892
437.60,5.796
437.80,5.83
438.00,5.832
438.20,5.888
438.40,5.81
438.60,5.808
438.80,5.87
439.00,5.8
439.20,5.906
439.40,5.84
439.60,5.826
439.80,5.862
440.00,5.848
440.20,5.814
440.40,5.84
440.60,5.874
440.80,5.822
441.00,5.816
441.20,5.848
441.40,5.888
441.60,5.83
441.80,5.87
442.00,5.86
442.20,5.862
442.40,5.866
442.60,5.844
442.80,5.818
443.00,5.83
443.20,5.866
443.40,5.808
443.60,5.824
443.80,5.862
444.00,5.818
444.20,5.858
444.40,5.844
444.60,5.846
444.80,5.814
445.00,5.858
445.20,5.846
445.40,5.88
445.60,5.862
445.80,5.844
446.00,5.866
446.20,5.89
446.40,5.822
446.60,5.838
446.80,5.876
447.00,5.83
447.20,5.846
447.40,5.888
447.60,5.832
447.80,5.814
448.00,5.868
448.20,5.81
448.40,5.888
448.60,5.848
448.80,5.86
449.00,5.87
449.20,5.844
449.40,5.84
449.60,5.898
449.80,5.84
450.00,5.846
450.20,5.862
450.40,5.95
450.60,5.734
450.80,5.848
451.00,5.822
451.20,5.88
451.40,5.846
451.60,5.814
451.80,5.862
452.00,5.858
452.20,5.852
452.40,5.816
452.60,5.884
452.80,5.816
453.00,5.852
453.20,5.86
453.40,5.89
453.60,5.844
453.80,5.808
454.00,5.836
454.20,5.838
454.40,5.876
454.60,5.854
454.80,5.868
455.00,5.858
455.20,5.808
455.40,5.84
455.60,5.862
455.80,5.86
456.00,5.888
456.20,5.868
456.40,5.832
456.60,5.876
456.80,5.866
457.00,5.81
457.20,5.816
457.40,5.88
457.60,5.822
457.80,5.844
458.00,5.802
458.20,5.822
458.40,5.836
458.60,5.858
458.80,5.88
459.00,5.86
459.20,5.852
459.40,5.868
459.60,5.866
459.80,5.838
460.00,5.84
460.20,5.83
460.40,5.884
460.60,5.808
460.80,5.912
461.00,5.846
461.20,5.896
461.40,5.816
461.60,5.882
461.80,5.848
462.00,5.822
462.20,5.868
462.40,5.81
462.60,5.84
462.80,5.802
463.00,5.884
463.20,5.792
463.40,5.888
463.60,5.8
463.80,5.854
464.00,5.884
464.20,5.824
464.40,5.84
464.60,5.832
464.80,5.844
465.00,5.846
465.20,5.84
465.40,5.814
465.60,5.868
465.80,5.844
466.00,5.898
466.20,5.808
466.40,5.832
466.60,5.862
466.80,5.83
467.00,5.868
467.20,5.868
467.40,5.858
467.60,5.862
467.80,5.838
468.00,5.862
468.20,5.858
468.40,5.998
468.60,5.734
468.80,5.836
469.00,5.794
469.20,5.876
469.40,5.832
469.60,5.848
469.80,5.84
470.00,5.836
470.20,5.836
470.40,5.892
470.60,5.876
470.80,5.796
471.00,5.84
471.20,5.862
471.40,5.88
471.60,5.832
471.80,5.844
472.00,5.846
472.20,5.848
472.40,5.848
472.60,5.858
472.80,5.858
473.00,5.844
473.20,5.836
473.40,5.838
473.60,5.818
473.80,5.854
474.00,5.868
474.20,5.858
474.40,5.882
474.60,5.838
474.80,5.838
475.00,5.868
475.20,5.83
475.40,5.796
475.60,5.892
475.80,5.816
476.00,5.818
476.20,5.822
476.40,5.902
476.60,5.844
476.80,5.826
477.00,5.858
477.20,5.868
477.40,5.822
477.60,5.86
477.80,5.84
478.00,5.89
478.20,5.854
478.40,5.822
478.60,5.83
478.80,5.882
479.00,5.83
479.20,5.838
479.40,5.844
479.60,5.866
479.80,5.838
480.00,5.884
480.20,5.882
480.40,5.818
480.60,5.884
480.80,5.854
481.00,5.852
481.20,5.858
481.40,5.858
481.60,5.792
481.80,5.87
482.00,5.84
482.20,5.844
482.40,5.862
482.60,5.824
482.80,5.876
483.00,5.86
483.20,5.862
483.40,5.826
483.60,5.848
483.80,5.854
484.00,5.848
484.20,5.858
484.40,5.84
484.60,5.848
484.80,5.89
485.00,5.862
485.20,5.822
485.40,5.866
485.60,5.868
485.80,5.86
486.00,5.86
486.20,5.858
486.40,5.91
486.60,5.708
486.80,5.848
487.00,5.838
487.20,5.896
487.40,5.836
487.60,5.816
487.80,5.838
488.00,5.854
488.20,5.848
488.40,5.87
488.60,5.836
488.80,5.866
489.00,5.8
489.20,5.836
489.40,5.904
489.60,5.844
489.80,5.848
490.00,5.858
490.20,5.858
490.40,5.832
490.60,5.844
490.80,5.86
491.00,5.854
491.20,5.824
491.40,5.874
491.60,5.826
491.80,5.88
492.00,5.802
492.20,5.876
492.40,5.86
492.60,5.846
492.80,5.838
493.00,5.836
493.20,5.824
493.40,5.822
493.60,5.88
493.80,5.84
494.00,5.86
494.20,5.852
494.40,5.832
494.60,5.862
494.80,5.87
495.00,5.87
495.20,5.8
495.40,5.904
495.60,5.836
495.80,5.802
496.00,5.846
496.20,5.88
496.40,5.796
496.60,5.87
496.80,5.866
497.00,5.796
497.20,5.876
497.40,5.858
497.60,5.888
497.80,5.822
498.00,5.868
498.20,5.858
498.40,5.83
498.60,5.88
498.80,5.838
499.00,5.826
499.20,5.844
499.40,5.816
499.60,5.844
499.80,5.874
500.00,5.794
500.20,5.866
500.40,5.826
500.60,5.848
500.80,5.826
501.00,5.83
501.20,5.846
501.40,5.868
501.60,5.852
501.80,5.854
502.00,5.87
502.20,5.848
502.40,5.86
502.60,5.782
502.80,5.866
503.00,5.846
503.20,5.824
503.40,5.874
503.60,5.868
503.80,5.838
504.00,5.88
504.20,5.848
504.40,5.91
504.60,5.72
504.80,5.824
505.00,5.906
505.20,5.824
505.40,5.826
505.60,5.822
505.80,5.876
506.00,5.852
506.20,5.844
506.40,5.836
506.60,5.852
506.80,5.92
507.00,5.83
507.20,5.83
507.40,5.844
507.60,5.824
507.80,5.848
508.00,5.8
508.20,5.86
508.40,5.836
508.60,5.874
508.80,5.832
509.00,5.846
509.20,5.882
509.40,5.836
509.60,5.826
509.80,5.88
510.00,5.854
510.20,5.83
510.40,5.866
510.60,5.848
510.80,5.838
511.00,5.826
511.20,5.86
511.40,5.854
511.60,5.898
511.80,5.848
512.00,5.854
512.20,5.874
512.40,5.83
512.60,5.826
512.80,5.804
513.00,5.846
513.20,5.854
513.40,5.862
513.60,5.858
513.80,5.876
514.00,5.858
514.20,5.852
514.40,5.826
514.60,5.83
514.80,5.87
515.00,5.824
515.20,5.83
515.40,5.862
515.60,5.866
515.80,5.882
516.00,5.81
516.20,5.838
516.40,5.854
516.60,5.824
516.80,5.858
517.00,5.822
517.20,5.848
517.40,5.89
517.60,5.814
517.80,5.874
518.00,5.866
518.20,5.862
518.40,5.844
518.60,5.884
518.80,5.89
519.00,5.876
519.20,5.846
519.40,5.84
519.60,5.808
519.80,5.86
520.00,5.838
520.20,5.818
520.40,5.854
520.60,5.86
520.80,5.832
521.00,5.786
521.20,5.892
521.40,5.814
521.60,5.848
521.80,5.83
522.00,5.88
522.20,5.89
522.40,5.882
522.60,5.804
522.80,5.862
523.00,5.83
523.20,5.844
523.40,5.874
523.60,5.836
523.80,5.844
524.00,5.86
524.20,5.822
524.40,5.884
524.60,5.844
524.80,5.836
525.00,5.818
525.20,5.912
525.40,5.824
525.60,5.818
525.80,5.816
526.00,5.904
526.20,5.86
526.40,5.808
526.60,5.854
526.80,5.84
527.00,5.844
527.20,5.848
527.40,5.854
527.60,5.83
527.80,5.852
528.00,5.852
528.20,5.876
528.40,5.83
528.60,5.826
528.80,5.836
529.00,5.832
529.20,5.838
529.40,5.832
529.60,5.904
529.80,5.824
530.00,5.846
530.20,5.854
530.40,5.86
530.60,5.926
530.80,5.83
531.00,5.796
531.20,5.83
531.40,5.874
531.60,5.862
531.80,5.804
532.00,5.902
532.20,5.882
532.40,5.882
532.60,5.822
532.80,5.832
533.00,5.858
533.20,5.852
533.40,5.832
533.60,5.846
533.80,5.838
534.00,5.782
534.20,5.832
534.40,5.884
534.60,5.874
534.80,5.854
535.00,5.832
535.20,5.816
535.40,5.882
535.60,5.882
535.80,5.86
536.00,5.77
536.20,5.862
536.40,5.86
536.60,5.854
536.80,5.896
537.00,5.896
537.20,5.836
537.40,5.822
537.60,5.84
537.80,5.816
538.00,5.852
538.20,5.862
538.40,5.888
538.60,5.814
538.80,5.826
539.00,5.83
539.20,5.824
539.40,5.862
539.60,5.88
539.80,5.848
540.00,5.824
540.20,5.854
540.40,5.98
540.60,5.744
540.80,5.852
541.00,5.846
541.20,5.844
541.40,5.868
541.60,5.848
541.80,5.824
542.00,5.822
542.20,5.884
542.40,5.862
542.60,5.822
542.80,5.87
543.00,5.896
543.20,5.802
543.40,5.846
543.60,5.852
543.80,5.846
544.00,5.824
544.20,5.8
544.40,5.876
544.60,5.816
544.80,5.882
545.00,5.898
545.20,5.832
545.40,5.836
545.60,5.81
545.80,5.858
546.00,5.846
546.20,5.822
546.40,5.882
546.60,5.87
546.80,5.854
547.00,5.824
547.20,5.888
547.40,5.884
547.60,5.808
547.80,5.868
548.00,5.866
548.20,5.84
548.40,5.852
548.60,5.86
548.80,5.854
549.00,5.818
549.20,5.874
549.40,5.814
549.60,5.906
549.80,5.86
550.00,5.826
550.20,5.84
550.40,5.84
550.60,5.862
550.80,5.862
551.00,5.884
551.20,5.868
551.40,5.838
551.60,5.83
551.80,5.876
552.00,5.814
552.20,5.826
552.40,5.792
552.60,5.838
552.80,5.83
553.00,5.868
553.20,5.852
553.40,5.868
553.60,5.852
553.80,5.802
554.00,5.86
554.20,5.86
554.40,5.866
554.60,5.87
554.80,5.822
555.00,5.852
555.20,5.824
555.40,5.868
555.60,5.808
555.80,5.846
556.00,5.86
556.20,5.838
556.40,5.804
556.60,5.818
556.80,5.832
557.00,5.892
557.20,5.802
557.40,5.874
557.60,5.844
557.80,5.868
558.00,5.83
558.20,5.892
558.40,5.914
558.60,5.738
558.80,5.822
559.00,5.866
559.20,5.826
559.40,5.858
559.60,5.832
559.80,5.84
560.00,5.884
560.20,5.838
560.40,5.846
560.60,5.83
560.80,5.816
561.00,5.862
561.20,5.846
561.40,5.87
561.60,5.858
561.80,5.836
562.00,5.846
562.20,5.804
562.40,5.858
562.60,5.81
562.80,5.874
563.00,5.854
563.20,5.826
563.40,5.89
563.60,5.83
563.80,5.876
564.00,5.862
564.20,5.826
564.40,5.838
564.60,5.832
564.80,5.882
565.00,5.836
565.20,5.846
565.40,5.818
565.60,5.884
565.80,5.858
566.00,5.826
566.20,5.854
566.40,5.838
566.60,5.84
566.80,5.848
567.00,5.87
567.20,5.846
567.40,5.892
567.60,5.862
567.80,5.808
568.00,5.84
568.20,5.87
568.40,5.836
568.60,5.808
568.80,5.88
569.00,5.852
569.20,5.892
569.40,5.836
569.60,5.81
569.80,5.848
570.00,5.848
570.20,5.836
570.40,5.824
570.60,5.868
570.80,5.818
571.00,5.882
571.20,5.848
571.40,5.838
571.60,5.858
571.80,5.862
572.00,5.86
572.20,5.858
572.40,5.84
572.60,5.868
572.80,5.824
573.00,5.84
573.20,5.862
573.40,5.876
573.60,5.816
573.80,5.858
574.00,5.87
574.20,5.854
574.40,5.816
574.60,5.83
574.80,5.818
575.00,5.846
575.20,5.862
575.40,5.882
575.60,5.876
575.80,5.814
576.00,5.862
576.20,5.87
576.40,5.934
576.60,5.712
576.80,5.846
577.00,5.86
577.20,5.832
577.40,5.838
577.60,5.888
577.80,5.848
578.00,5.838
578.20,5.854
578.40,5.848
578.60,5.802
578.80,5.882
579.00,5.866
579.20,5.822
579.40,5.896
579.60,5.862
579.80,5.846
580.00,5.858
580.20,5.822
580.40,5.862
580.60,5.824
580.80,5.846
581.00,5.882
581.20,5.884
581.40,5.84
581.60,5.848
581.80,5.824
582.00,5.84
582.20,5.86
582.40,5.868
582.60,5.866
582.80,5.846
583.00,5.86
583.20,5.868
583.40,5.838
583.60,5.84
583.80,5.854
584.00,5.87
584.20,5.826
584.40,5.814
584.60,5.944
584.80,5.826
585.00,5.832
585.20,5.848
585.40,5.84
585.60,5.892
585.80,5.854
586.00,5.772
586.20,5.816
586.40,5.824
586.60,5.844
586.80,5.874
587.00,5.87
587.20,5.888
587.40,5.832
587.60,5.816
587.80,5.852
588.00,5.836
588.20,5.902
588.40,5.818
588.60,5.86
588.80,5.832
589.00,5.876
589.20,5.81
589.40,5.884
589.60,5.866
589.80,5.858
590.00,5.8
590.20,5.852
590.40,5.818
590.60,5.89
590.80,5.846
591.00,5.858
591.40,5.856
591.60,5.938
591.80,5.812
592.00,5.858
592.20,5.844
592.40,5.794
592.60,5.87
592.80,5.814
593.00,5.812
593.20,5.88
593.40,5.882
593.60,5.838
593.80,5.822
594.00,5.858
594.20,5.83
594.40,5.878
594.60,5.826
594.80,5.856
595.00,5.834
595.20,5.856
595.40,5.856
595.60,5.866
595.80,5.82
596.00,5.834
596.20,5.838
596.40,5.886
596.60,5.804
596.80,5.87
597.00,5.86
597.20,5.872
597.40,5.82
597.60,5.814
597.80,5.834
598.00,5.874
598.20,5.844
598.40,5.86
598.60,5.828
598.80,5.836
599.00,5.866
599.20,5.902
599.40,5.858
599.60,5.858
599.80,5.848
600.00,5.848
600.20,5.858
600.40,5.828
600.60,5.808
600.80,5.872
601.00,5.856
601.20,5.826
601.40,5.86
601.60,5.916
601.80,5.82
602.00,5.848
602.20,5.864
602.40,5.856
602.60,5.8
602.80,5.826
603.00,5.842
603.20,5.946
603.40,5.798
603.60,5.816
603.80,5.87
604.00,5.864
604.20,5.826
604.40,5.826
604.60,5.836
604.80,5.88
605.00,5.834
605.20,5.848
605.40,5.856
605.60,5.848
605.80,5.86
606.00,5.836
606.20,5.838
606.40,5.834
606.60,5.85
606.80,5.826
607.00,5.878
607.20,5.9
607.40,5.866
607.60,5.822
607.80,5.856
608.00,5.834
608.20,5.834
608.40,5.842
608.60,5.872
608.80,5.878
609.00,5.896
609.20,5.836
609.40,5.784
609.60,5.982
609.80,5.808
610.00,5.798
610.20,5.856
610.40,5.85
610.60,5.82
610.80,5.9
611.00,5.852
611.20,5.844
611.40,5.808
611.60,5.812
611.80,5.848
612.00,5.866
612.20,5.83
612.40,5.872
612.60,5.806
612.80,5.88
613.00,5.908
613.20,5.804
613.40,5.88
613.60,5.826
613.80,5.886
614.00,5.856
614.20,5.826
614.40,5.88
614.60,5.822
614.80,5.93
615.00,5.856
615.20,5.848
615.40,5.8
615.60,5.836
615.80,5.852
616.00,5.838
616.20,5.886
616.40,5.826
616.60,5.768
616.80,5.892
617.00,5.856
617.20,5.858
617.40,5.82
617.60,5.856
617.80,5.886
618.00,5.874
618.20,5.826
618.40,5.848
618.60,5.834
618.80,5.892
619.00,5.842
619.20,5.814
619.40,5.826
619.60,5.864
619.80,5.842
620.00,5.886
620.20,5.816
620.40,5.848
620.60,5.842
620.80,5.858
621.00,5.858
621.20,5.842
621.40,5.872
621.60,5.83
621.80,5.828
622.00,5.814
622.20,5.834
622.40,5.83
622.60,5.85
622.80,5.87
623.00,5.896
623.20,5.872
623.40,5.822
623.60,5.822
623.80,5.874
624.00,5.828
624.20,5.848
624.40,5.85
624.60,5.838
624.80,5.828
625.00,5.874
625.20,5.866
625.40,5.812
625.60,5.888
625.80,5.82
626.00,5.844
626.20,5.87
626.40,5.806
626.60,5.878
626.80,5.784
627.00,5.892
627.20,5.866
627.40,5.794
627.60,5.974
627.80,5.75
628.00,5.856
628.20,5.888
628.40,5.826
628.60,5.872
628.80,5.828
629.00,5.826
629.20,5.88
629.40,5.848
629.60,5.864
629.80,5.826
630.00,5.87
630.20,5.85
630.40,5.828
630.60,5.816
630.80,5.874
631.00,5.852
631.20,5.836
631.40,5.838
631.60,5.886
631.80,5.856
632.00,5.83
632.20,5.886
632.40,5.826
632.60,5.844
632.80,5.842
633.00,5.858
633.20,5.838
633.40,5.848
633.60,5.83
633.80,5.856
634.00,5.83
634.20,5.812
634.40,5.892
634.60,5.83
634.80,5.892
635.00,5.852
635.20,5.856
635.40,5.834
635.60,5.842
635.80,5.85
636.00,5.858
636.20,5.784
636.40,5.82
636.60,5.944
636.80,5.866
637.00,5.848
637.20,5.826
637.40,5.836
637.60,5.856
637.80,5.902
638.00,5.826
638.20,5.826
638.40,5.878
638.60,5.786
638.80,5.83
639.00,5.85
639.20,5.896
639.40,5.892
639.60,5.826
639.80,5.814
640.00,5.886
640.20,5.87
640.40,5.848
640.60,5.856
640.80,5.83
641.00,5.808
641.20,5.844
641.40,5.866
641.60,5.872
641.80,5.808
642.00,5.88
642.20,5.836
642.40,5.806
642.60,5.856
642.80,5.806
643.00,5.83
643.20,5.826
643.40,5.814
643.60,5.83
643.80,5.878
644.00,5.87
644.20,5.814
644.40,5.844
644.60,5.822
644.80,5.858
645.00,5.882
645.20,5.87
645.40,5.828
645.60,5.944
645.80,5.814
646.00,5.886
646.20,5.798
646.40,5.9
646.60,5.83
646.80,5.842
647.00,5.856
647.20,5.83
647.40,5.866
647.60,5.848
647.80,5.844
648.00,5.82
648.20,5.828
648.40,5.886
648.60,5.838
648.80,5.86
649.00,5.844
649.20,5.808
649.40,5.836
649.60,5.836
649.80,5.848
650.00,5.892
650.20,5.856
650.40,5.828
650.60,5.848
650.80,5.8
651.00,5.83
651.20,5.808
651.40,5.904
651.60,5.864
651.80,5.858
652.00,5.85
652.20,5.814
652.40,5.784
652.60,5.908
652.80,5.856
653.00,5.842
653.20,5.87
653.40,5.792
653.60,5.836
653.80,5.894
654.00,5.798
654.20,5.808
654.40,5.892
654.60,5.864
654.80,5.822
655.00,5.838
655.20,5.806
655.40,5.848
655.60,5.872
655.80,5.892
656.00,5.878
656.20,5.844
656.40,5.826
656.60,5.852
656.80,5.816
657.00,5.836
657.20,5.838
657.40,5.8
657.60,5.834
657.80,5.882
658.00,5.87
658.20,5.816
658.40,5.83
658.60,5.886
658.80,5.814
659.00,5.872
659.20,5.848
659.40,5.792
659.60,5.87
659.80,5.856
660.00,5.86
660.20,5.806
660.40,5.892
660.60,5.838
660.80,5.848
661.00,5.848
661.20,5.836
661.40,5.866
661.60,5.804
661.80,5.874
662.00,5.878
662.20,5.82
662.40,5.834
662.60,5.866
662.80,5.856
663.00,5.844
663.20,5.826
663.40,5.836
663.60,5.91
663.80,5.806
664.00,5.844
664.20,5.842
664.40,5.842
664.60,5.86
664.80,5.838
665.00,5.834
665.20,5.908
665.40,5.836
665.60,5.826
665.80,5.808
666.00,5.83
666.20,5.858
666.40,5.834
666.60,5.894
666.80,5.864
667.00,5.864
667.20,5.798
667.40,5.866
667.60,5.842
667.80,5.822
668.00,5.87
668.20,5.828
668.40,5.866
668.60,5.842
668.80,5.874
669.00,5.822
669.20,5.822
669.40,5.828
669.60,5.814
669.80,5.86
670.00,5.874
670.20,5.806
670.40,5.842
670.60,5.808
670.80,5.888
671.00,5.878
671.20,5.848
671.40,5.888
671.60,5.838
671.80,5.844
672.00,5.83
672.20,5.8
672.40,5.872
672.60,5.866
672.80,5.866
673.00,5.858
673.20,5.826
673.40,5.814
673.60,5.856
673.80,5.82
674.00,5.83
674.20,5.874
674.40,5.864
674.60,5.82
674.80,5.882
675.00,5.872
675.20,5.858
675.40,5.85
675.60,5.852
675.80,5.858
676.00,5.844
676.20,5.826
676.40,5.844
676.60,5.836
676.80,5.852
677.00,5.848
677.20,5.834
677.40,5.85
677.60,5.848
677.80,5.856
678.00,5.814
678.20,5.836
678.40,5.852
678.60,5.882
678.80,5.83
679.00,5.83
679.20,5.828
679.40,5.874
679.60,5.838
679.80,5.822
680.00,5.826
680.20,5.86
680.40,5.858
680.60,5.844
680.80,5.896
681.00,5.79
681.20,5.874
681.40,5.874
681.60,5.902
681.80,5.754
682.00,5.856
682.20,5.848
682.40,5.826
682.60,5.842
682.80,5.852
683.00,5.87
683.20,5.874
683.40,5.834
683.60,5.852
683.80,5.852
684.00,5.872
684.20,5.842
684.40,5.836
684.60,5.864
684.80,5.864
685.00,5.842
685.20,5.83
685.40,5.828
685.60,5.882
685.80,5.892
686.00,5.812
686.20,5.874
686.40,5.83
686.60,5.86
686.80,5.848
687.00,5.852
687.20,5.836
687.40,5.864
687.60,5.83
687.80,5.838
688.00,5.822
688.20,5.86
688.40,5.852
688.60,5.828
688.80,5.838
689.00,5.828
689.20,5.864
689.40,5.88
689.60,5.822
689.80,5.82
690.00,5.85
690.20,5.822
690.40,5.866
690.60,5.848
690.80,5.828
691.00,5.878
691.20,5.892
691.40,5.826
691.60,5.886
691.80,5.836
692.00,5.834
692.20,5.852
692.40,5.878
692.60,5.858
692.80,5.83
693.00,5.808
693.20,5.838
693.40,5.844
693.60,5.836
693.80,5.85
694.00,5.844
694.20,5.858
694.40,5.816
694.60,5.864
694.80,5.86
695.00,5.87
695.20,5.838
695.40,5.83
695.60,5.872
695.80,5.856
696.00,5.836
696.20,5.87
696.40,5.864
696.60,5.83
696.80,5.848
697.00,5.88
697.20,5.864
697.40,5.838
697.60,5.83
697.80,5.842
698.00,5.836
698.20,5.86
698.40,5.812
698.60,5.856
698.80,5.848
699.00,5.894
699.20,5.87
699.40,5.864
699.60,5.948
699.80,5.75
700.00,5.822
700.20,5.838
700.40,5.886
700.60,5.838
700.80,5.812
701.00,5.838
701.20,5.874
701.40,5.83
701.60,5.838
701.80,5.892
702.00,5.85
702.20,5.88
702.40,5.828
702.60,5.826
702.80,5.794
703.00,5.874
703.20,5.86
703.40,5.844
703.60,5.844
703.80,5.9
704.00,5.828
704.20,5.872
704.40,5.894
704.60,5.836
704.80,5.844
705.00,5.83
705.20,5.834
705.40,5.852
705.60,5.798
705.80,5.834
706.00,5.88
706.20,5.836
706.40,5.866
706.60,5.836
706.80,5.83
707.00,5.874
707.20,5.804
707.40,5.894
707.60,5.864
707.80,5.848
708.00,5.816
708.20,5.852
708.40,5.826
708.60,5.838
708.80,5.866
709.00,5.844
709.20,5.85
709.40,5.812
709.60,5.858
709.80,5.828
710.00,5.814
710.20,5.878
710.40,5.864
710.60,5.82
710.80,5.888
711.00,5.838
711.20,5.794
711.40,5.88
711.60,5.834
711.80,5.864
712.00,5.866
712.20,5.852
712.40,5.848
712.60,5.85
712.80,5.83
713.00,5.834
713.20,5.834
713.40,5.87
713.60,5.844
713.80,5.892
714.00,5.882
714.20,5.808
714.40,5.842
714.60,5.838
714.80,5.842
715.00,5.812
715.20,5.852
715.40,5.888
715.60,5.834
715.80,5.848
716.00,5.836
716.20,5.836
716.40,5.872
716.60,5.834
716.80,5.842
717.00,5.894
717.20,5.814
717.40,5.86
717.60,5.98
717.80,5.748
718.00,5.822
718.20,5.892
718.40,5.808
718.60,5.87
718.80,5.794
719.00,5.908
719.20,5.808
719.40,5.858
719.60,5.858
719.80,5.778
720.00,5.91
720.20,5.838
720.40,5.87
720.60,5.794
720.80,5.822
721.00,5.82
721.20,5.878
721.40,5.83
721.60,5.87
721.80,5.874
722.00,5.792
722.20,5.894
722.40,5.828
722.60,5.894
722.80,5.87
723.00,5.814
723.20,5.812
723.40,5.82
723.60,5.87
723.80,5.858
724.00,5.88
724.20,5.844
724.40,5.872
724.60,5.834
724.80,5.87
725.00,5.858
725.20,5.828
725.40,5.85
725.60,5.848
725.80,5.878
726.00,5.804
726.20,5.8
726.40,5.842
726.60,5.866
726.80,5.852
727.00,5.826
727.20,5.822
727.40,5.874
727.60,5.836
727.80,5.886
728.00,5.83
728.20,5.776
728.40,5.872
728.60,5.886
728.80,5.842
729.00,5.808
729.20,5.804
729.40,5.866
729.60,5.864
729.80,5.816
730.00,5.852
730.20,5.878
730.40,5.826
730.60,5.872
730.80,5.816
731.00,5.88
731.20,5.816
731.40,5.874
731.60,5.87
731.80,5.852
732.00,5.836
732.20,5.892
732.40,5.85
732.60,5.82
732.80,5.842
733.00,5.844
733.20,5.878
733.40,5.842
733.60,5.858
733.80,5.822
734.00,5.86
734.20,5.836
734.40,5.892
734.60,5.83
734.80,5.842
735.00,5.842
735.20,5.85
735.40,5.852
735.60,5.966
735.80,5.772
736.00,5.844
736.20,5.85
736.40,5.836
736.60,5.902
736.80,5.838
737.00,5.852
737.20,5.878
737.40,5.816
737.60,5.874
737.80,5.798
738.00,5.848
738.20,5.852
738.40,5.872
738.60,5.836
738.80,5.806
739.00,5.814
739.20,5.864
739.40,5.866
739.60,5.856
739.80,5.814
740.00,5.87
740.20,5.866
740.40,5.88
740.60,5.8
740.80,5.812
741.00,5.872
741.20,5.852
741.40,5.826
741.60,5.834
741.80,5.864
742.00,5.826
742.20,5.878
742.40,5.86
742.60,5.82
742.80,5.828
743.00,5.91
743.20,5.85
743.40,5.836
743.60,5.842
743.80,5.838
744.00,5.834
744.20,5.88
744.40,5.872
744.60,5.834
744.80,5.822
745.00,5.844
745.20,5.866
745.40,5.842
745.60,5.86
745.80,5.838
746.00,5.812
746.20,5.816
746.40,5.87
746.60,5.826
746.80,5.826
747.00,5.848
747.20,5.838
747.40,5.896
747.60,5.792
747.80,5.886
748.00,5.87
748.20,5.914
748.40,5.804
748.60,5.836
748.80,5.838
749.00,5.86
749.20,5.822
749.40,5.836
749.60,5.9
749.80,5.804
750.00,5.886
750.20,5.86
750.40,5.85
750.60,5.814
750.80,5.882
751.00,5.814
751.20,5.856
751.40,5.828
751.60,5.864
751.80,5.826
752.00,5.83
752.20,5.844
752.40,5.848
752.60,5.882
752.80,5.864
753.00,5.864
753.20,5.858
753.40,5.814
753.60,5.958
753.80,5.768
754.00,5.864
754.20,5.844
754.40,5.872
754.60,5.836
754.80,5.85
755.00,5.848
755.20,5.814
755.40,5.83
755.60,5.894
755.80,5.886
756.00,5.88
756.20,5.858
756.40,5.822
756.60,5.826
756.80,5.9
757.00,5.848
757.20,5.826
757.40,5.83
757.60,5.842
757.80,5.842
758.00,5.83
758.20,5.888
758.40,5.82
758.60,5.886
758.80,5.804
759.00,5.842
759.20,5.894
759.40,5.822
759.60,5.892
759.80,5.836
760.00,5.844
760.20,5.814
760.40,5.88
760.60,5.886
760.80,5.826
761.00,5.826
761.20,5.892
761.40,5.86
761.60,5.808
761.80,5.848
762.00,5.872
762.20,5.866
762.40,5.87
762.60,5.86
762.80,5.838
763.00,5.83
763.20,5.866
763.40,5.826
763.60,5.812
763.80,5.892
764.00,5.866
764.20,5.85
764.40,5.826
764.60,5.892
764.80,5.918
765.00,5.77
765.20,5.826
765.40,5.828
765.60,5.886
765.80,5.844
766.00,5.866
766.20,5.83
766.40,5.842
766.60,5.886
766.80,5.836
767.00,5.864
767.20,5.86
767.40,5.816
767.60,5.852
767.80,5.866
768.00,5.848
768.20,5.872
768.40,5.858
768.60,5.848
768.80,5.822
769.00,5.908
769.20,5.856
769.40,5.792
769.60,5.844
769.80,5.834
770.00,5.9
770.20,5.85
770.40,5.83
770.60,5.836
770.80,5.848
771.00,5.888
771.20,5.826
771.40,5.874
771.60,5.936
771.80,5.776
772.00,5.814
772.20,5.878
772.40,5.85
772.60,5.872
772.80,5.88
773.00,5.828
773.20,5.848
773.40,5.836
773.60,5.88
773.80,5.86
774.00,5.826
774.20,5.826
774.40,5.87
774.60,5.842
774.80,5.82
775.00,5.844
775.20,5.844
775.40,5.86
775.60,5.8
775.80,5.88
776.00,5.852
776.20,5.836
776.40,5.816
776.60,5.86
776.80,5.848
777.00,5.794
777.20,5.828
777.40,5.874
777.60,5.848
777.80,5.826
778.00,5.848
778.20,5.848
778.40,5.856
778.60,5.874
778.80,5.834
779.00,5.878
779.20,5.856
779.40,5.814
779.60,5.87
779.80,5.814
780.00,5.858
780.20,5.864
780.40,5.834
780.60,5.85
780.80,5.86
781.00,5.852
781.20,5.798
781.40,5.874
781.60,5.88
781.80,5.808
782.00,5.87
782.20,5.856
782.40,5.838
782.60,5.872
782.80,5.828
783.00,5.866
783.20,5.834
783.40,5.886
783.60,5.852
783.80,5.838
784.00,5.88
784.20,5.828
784.40,5.864
784.60,5.836
784.80,5.86
785.00,5.82
785.20,5.836
785.40,5.836
785.60,5.858
785.80,5.866
786.00,5.896
786.20,5.784
786.40,5.838
786.60,5.856
786.80,5.886
787.00,5.826
787.20,5.87
787.40,5.826
787.60,5.866
787.80,5.776
788.00,5.856
788.20,5.904
788.40,5.864
788.60,5.856
788.80,5.844
789.00,5.866
789.20,5.852
789.40,5.85
789.60,5.922
789.80,5.756
790.00,5.834
790.20,5.844
790.40,5.85
790.60,5.836
790.80,5.852
791.00,5.842
791.20,5.838
791.40,5.838
791.60,5.852
791.80,5.816
792.00,5.826
792.20,5.87
792.40,5.88
792.60,5.842
792.80,5.792
793.00,5.87
793.20,5.852
793.40,5.844
793.60,5.86
793.80,5.836
794.00,5.86
794.20,5.88
794.40,5.86
794.60,5.814
794.80,5.822
795.00,5.874
795.20,5.842
795.40,5.844
795.60,5.844
795.80,5.858
796.00,5.812
796.20,5.83
796.40,5.882
796.60,5.858
796.80,5.86
797.00,5.844
797.20,5.828
797.40,5.828
797.60,5.888
797.80,5.778
798.00,5.866
798.20,5.844
798.40,5.838
798.60,5.874
798.80,5.866
799.00,5.848
799.20,5.858
799.40,5.842
799.60,5.838
799.80,5.83
800.00,5.886
800.20,5.886
800.40,5.892
800.60,5.816
800.80,5.794
801.00,5.88
801.20,5.79
801.40,5.886
801.60,5.844
801.80,5.838
802.00,5.8
802.20,5.922
802.40,5.858
802.60,5.826
802.80,5.834
803.00,5.878
803.20,5.892
803.40,5.864
803.60,5.822
803.80,5.848
804.00,5.836
804.20,5.858
804.40,5.852
804.60,5.864
804.80,5.86
805.00,5.844
805.20,5.852
805.40,5.886
805.60,5.826
805.80,5.834
806.00,5.88
806.20,5.83
806.40,5.848
806.60,5.814
806.80,5.814
807.00,5.848
807.20,5.86
807.40,5.858
807.60,5.948
807.80,5.76
808.00,5.814
808.20,5.836
808.40,5.836
808.60,5.848
808.80,5.85
809.00,5.902
809.20,5.826
809.40,5.812
809.60,5.87
809.80,5.85
810.00,5.806
810.20,5.836
810.40,5.848
810.60,5.86
810.80,5.85
811.00,5.826
811.20,5.842
811.40,5.86
811.60,5.836
811.80,5.808
812.00,5.872
812.20,5.896
812.40,5.826
812.60,5.852
812.80,5.864
813.00,5.848
813.20,5.842
813.40,5.87
813.60,5.866
813.80,5.85
814.00,5.88
814.20,5.808
814.40,5.83
814.60,5.856
814.80,5.852
815.00,5.85
815.20,5.836
815.40,5.87
815.60,5.864
815.80,5.874
816.00,5.838
816.20,5.844
816.40,5.848
816.60,5.826
816.80,5.888
817.00,5.838
817.20,5.834
817.40,5.858
817.60,5.828
817.80,5.892
818.00,5.83
818.20,5.848
818.40,5.848
818.60,5.804
818.80,5.892
819.00,5.856
819.20,5.804
819.40,5.856
819.60,5.838
819.80,5.822
820.00,5.864
820.20,5.87
820.40,5.88
820.60,5.838
820.80,5.816
821.00,5.848
821.20,5.882
821.40,5.896
821.60,5.848
821.80,5.834
822.00,5.834
822.20,5.834
822.40,5.838
822.60,5.87
822.80,5.844
823.00,5.864
823.20,5.842
823.40,5.838
823.60,5.88
823.80,5.826
824.00,5.838
824.20,5.826
824.40,5.87
824.60,5.85
824.80,5.848
825.00,5.852
825.20,5.836
825.40,5.866
825.60,5.922
825.80,5.826
826.00,5.814
826.20,5.838
826.40,5.804
826.60,5.848
826.80,5.874
827.00,5.798
827.20,5.85
827.40,5.878
827.60,5.85
827.80,5.872
828.00,5.86
828.20,5.826
828.40,5.848
828.60,5.902
828.80,5.754
829.00,5.848
829.20,5.882
829.40,5.838
829.60,5.856
829.80,5.878
830.00,5.85
830.20,5.848
830.40,5.834
830.60,5.82
830.80,5.844
831.00,5.848
831.20,5.838
831.40,5.844
831.60,5.878
831.80,5.82
832.00,5.822
832.20,5.874
832.40,5.836
832.60,5.826
832.80,5.858
833.00,5.886
833.20,5.83
833.40,5.834
833.60,5.844
833.80,5.838
834.00,5.838
834.20,5.858
834.40,5.882
834.60,5.814
834.80,5.836
835.00,5.872
835.20,5.836
835.40,5.842
835.60,5.878
835.80,5.874
836.00,5.82
836.20,5.874
836.40,5.806
836.60,5.87
836.80,5.828
837.00,5.814
837.20,5.88
837.40,5.826
837.60,5.836
837.80,5.878
838.00,5.86
838.20,5.856
838.40,5.834
838.60,5.804
838.80,5.9
839.00,5.878
839.20,5.864
839.40,5.878
839.60,5.83
839.80,5.864
840.00,5.85
840.20,5.856
840.40,5.852
840.60,5.842
840.80,5.798
841.00,5.864
841.20,5.822
841.40,5.86
841.60,5.834
841.80,5.838
842.00,5.836
842.20,5.844
842.40,5.844
842.60,5.838
842.80,5.836
843.00,5.88
843.20,5.874
843.40,5.842
843.60,5.918
843.80,5.786
844.00,5.804
844.20,5.856
844.40,5.836
844.60,5.844
844.80,5.864
845.00,5.848
845.20,5.826
845.40,5.874
845.60,5.848
845.80,5.848
846.00,5.836
846.20,5.858
846.40,5.83
846.60,5.844
846.80,5.828
847.00,5.856
847.20,5.872
847.40,5.844
847.60,5.87
847.80,5.88
848.00,5.872
848.20,5.852
848.40,5.826
848.60,5.826
848.80,5.858
849.00,5.828
849.20,5.848
849.40,5.834
849.60,5.806
849.80,5.844
850.00,5.882
850.20,5.828
850.40,5.852
850.60,5.844
850.80,5.808
851.00,5.886
851.20,5.844
851.40,5.9
851.60,5.864
851.80,5.85
852.00,5.896
852.20,5.82
852.40,5.8
852.60,5.9
852.80,5.844
853.00,5.858
853.20,5.828
853.40,5.826
853.60,5.842
853.80,5.858
854.00,5.82
854.20,5.866
854.40,5.812
854.60,5.834
854.80,5.86
855.00,5.872
855.20,5.828
855.40,5.892
855.60,5.816
855.80,5.874
856.00,5.838
856.20,5.842
856.40,5.798
856.60,5.878
856.80,5.834
857.00,5.88
857.20,5.886
857.40,5.858
857.60,5.848
857.80,5.83
858.00,5.902
858.20,5.82
858.40,5.834
858.60,5.852
858.80,5.87
859.00,5.866
859.20,5.848
859.40,5.814
859.60,5.866
859.80,5.848
860.00,5.848
860.20,5.91
860.40,5.85
860.60,5.87
860.80,5.838
861.00,5.83
861.20,5.83
861.40,5.852
861.60,5.886
861.80,5.772
862.00,5.836
862.20,5.836
862.40,5.838
862.60,5.882
862.80,5.844
863.00,5.836
863.20,5.838
863.40,5.886
863.60,5.834
863.80,5.844
864.00,5.86
864.20,5.866
864.40,5.88
864.60,5.814
864.80,5.848
865.00,5.848
865.20,5.812
865.40,5.828
865.60,5.87
865.80,5.826
866.00,5.842
866.20,5.85
866.40,5.93
866.60,5.872
866.80,5.848
867.00,5.826
867.20,5.842
867.40,5.888
867.60,5.844
867.80,5.834
868.00,5.874
868.20,5.848
868.40,5.8
868.60,5.83
868.80,5.82
869.00,5.902
869.20,5.838
869.40,5.844
869.60,5.85
869.80,5.826
870.00,5.872
870.20,5.806
870.40,5.9
870.60,5.826
870.80,5.872
871.00,5.838
871.20,5.85
871.40,5.9
871.60,5.842
871.80,5.838
872.00,5.834
872.20,5.792
872.40,5.872
872.60,5.878
872.80,5.816
873.00,5.852
873.20,5.834
873.40,5.872
873.60,5.852
873.80,5.794
874.00,5.874
874.20,5.87
874.40,5.83
874.60,5.858
874.80,5.86
875.00,5.822
875.20,5.834
875.40,5.858
875.60,5.85
875.80,5.83
876.00,5.8
876.20,5.882
876.40,5.814
876.60,5.85
876.80,5.82
877.00,5.872
877.20,5.87
877.40,5.858
877.60,5.878
877.80,5.838
878.00,5.798
878.20,5.856
878.40,5.836
878.60,5.864
878.80,5.848
879.00,5.844
879.20,5.85
879.40,5.83
879.60,5.958
879.80,5.738
880.00,5.872
880.20,5.86
880.40,5.842
880.60,5.852
880.80,5.814
881.00,5.834
881.20,5.88
881.40,5.856
881.60,5.828
881.80,5.856
882.00,5.852
882.20,5.878
882.40,5.816
882.60,5.866
882.80,5.836
883.00,5.814
883.20,5.834
883.40,5.848
883.60,5.878
883.80,5.842
884.00,5.814
884.20,5.856
884.40,5.866
884.60,5.858
884.80,5.826
885.00,5.816
885.20,5.856
885.40,5.842
885.60,5.85
885.80,5.852
886.00,5.82
886.20,5.822
886.40,5.826
886.60,5.878
886.80,5.872
887.00,5.87
887.20,5.836
887.40,5.828
887.60,5.874
887.80,5.784
888.00,5.848
888.20,5.88
888.40,5.88
888.60,5.842
888.80,5.826
889.00,5.83
889.20,5.806
889.40,5.88
889.60,5.828
889.80,5.804
890.00,5.83
890.20,5.874
890.40,5.872
890.60,5.908
890.80,5.828
891.00,5.8
891.20,5.882
891.60,5.838
891.80,5.822
892.00,5.864
892.20,5.872
892.40,5.816
892.60,5.834
892.80,5.828
893.00,5.838
893.20,5.858
893.40,5.878
893.60,5.858
893.80,5.83
894.00,5.878
894.20,5.866
894.40,5.822
894.60,5.828
894.80,5.918
895.00,5.726
895.20,5.836
895.40,5.846
895.60,5.866
895.80,5.868
896.00,5.822
896.20,5.838
896.40,5.844
896.60,5.88
896.80,5.814
897.00,5.85
897.20,5.808
897.40,5.85
897.60,5.88
897.80,5.85
898.00,5.852
898.20,5.89
898.40,5.852
898.60,5.838
898.80,5.82
899.00,5.85
899.20,5.872
899.40,5.858
899.60,5.874
899.80,5.844
900.00,5.83
900.20,5.844
900.40,5.864
900.60,5.816
900.80,5.824
901.00,5.856
901.20,5.858
901.40,5.816
901.60,5.864
901.80,5.846
902.00,5.866
902.20,5.85
902.40,5.85
902.60,5.856
902.80,5.8
903.00,5.83
903.20,5.844
903.40,5.842
903.60,5.824
903.80,5.836
904.00,5.846
904.20,5.89
904.40,5.814
904.60,5.874
904.80,5.838
905.00,5.812
905.20,5.846
905.40,5.824
905.60,5.846
905.80,5.828
906.00,5.864
906.20,5.872
906.40,5.812
906.60,5.85
906.80,5.816
907.00,5.888
907.20,5.824
907.40,5.844
907.60,5.894
907.80,5.866
908.00,5.842
908.20,5.816
908.40,5.844
908.60,5.838
908.80,5.824
909.00,5.85
909.20,5.844
909.40,5.842
909.60,5.812
909.80,5.85
910.00,5.842
910.20,5.836
910.40,5.88
910.60,5.824
910.80,5.846
911.00,5.856
911.20,5.852
911.40,5.792
911.60,5.86
911.80,5.838
912.00,5.842
912.20,5.828
912.40,5.858
912.60,5.868
912.80,5.88
913.00,5.756
913.20,5.816
913.40,5.894
913.60,5.824
913.80,5.836
914.00,5.866
914.20,5.824
914.40,5.852
914.60,5.846
914.80,5.836
915.00,5.852
915.20,5.88
915.40,5.856
915.60,5.828
915.80,5.878
916.00,5.874
916.20,5.874
916.40,5.858
916.60,5.816
916.80,5.846
917.00,5.83
917.20,5.838
917.40,5.842
917.60,5.89
917.80,5.858
918.00,5.822
918.20,5.834
918.40,5.812
918.60,5.86
918.80,5.868
919.00,5.812
919.20,5.858
919.40,5.866
919.60,5.864
919.80,5.816
920.00,5.864
920.20,5.822
920.40,5.866
920.60,5.866
920.80,5.846
921.00,5.85
921.20,5.886
921.40,5.83
921.60,5.834
921.80,5.844
922.00,5.846
922.20,5.812
922.40,5.846
922.60,5.834
922.80,5.846
923.00,5.902
923.20,5.844
923.40,5.824
923.60,5.846
923.80,5.882
924.00,5.842
924.20,5.842
924.40,5.886
924.60,5.814
924.80,5.812
925.00,5.828
925.20,5.83
925.40,5.874
925.60,5.812
925.80,5.856
926.00,5.896
926.20,5.806
926.40,5.844
926.60,5.842
926.80,5.812
927.00,5.864
927.20,5.82
927.40,5.856
927.60,5.846
927.80,5.85
928.00,5.874
928.20,5.85
928.40,5.86
928.60,5.846
928.80,5.814
929.00,5.798
929.20,5.896
929.40,5.836
929.60,5.856
929.80,5.824
930.00,5.846
930.20,5.872
930.40,5.868
930.60,5.808
930.80,5.93
931.00,5.78
931.20,5.836
931.40,5.864
931.60,5.864
931.80,5.802
932.00,5.802
932.20,5.868
932.40,5.858
932.60,5.834
932.80,5.89
933.00,5.842
933.20,5.83
933.40,5.834
933.60,5.882
933.80,5.808
934.00,5.85
934.20,5.86
934.40,5.844
934.60,5.902
934.80,5.838
935.00,5.852
935.20,5.86
935.40,5.864
935.60,5.808
935.80,5.864
936.00,5.858
936.20,5.824
936.40,5.846
936.60,5.784
936.80,5.858
937.00,5.836
937.20,5.844
937.40,5.824
937.60,5.9
937.80,5.852
938.00,5.828
938.20,5.836
938.40,5.814
938.60,5.872
938.80,5.842
939.00,5.874
939.20,5.86
939.40,5.824
939.60,5.886
939.80,5.828
940.00,5.868
940.20,5.824
940.40,5.888
940.60,5.802
940.80,5.868
941.00,5.838
941.20,5.886
941.40,5.858
941.60,5.792
941.80,5.822
942.00,5.858
942.20,5.858
942.40,5.802
942.60,5.872
942.80,5.83
943.00,5.85
943.20,5.812
943.40,5.834
943.60,5.874
943.80,5.858
944.00,5.83
944.20,5.872
944.40,5.868
944.60,5.838
944.80,5.856
945.00,5.858
945.20,5.824
945.40,5.836
945.60,5.878
945.80,5.828
946.00,5.844
946.20,5.864
946.40,5.834
946.60,5.85
946.80,5.872
947.00,5.82
947.20,5.888
947.40,5.844
947.60,5.83
947.80,5.844
948.00,5.8
948.20,5.836
948.40,5.828
948.60,5.844
948.80,5.934
949.00,5.718
949.20,5.868
949.40,5.836
949.60,5.844
949.80,5.852
950.00,5.836
950.20,5.842
950.40,5.844
950.60,5.868
950.80,5.888
951.00,5.86
951.20,5.842
951.40,5.866
951.60,5.866
951.80,5.846
952.00,5.852
952.20,5.824
952.40,5.824
952.60,5.858
952.80,5.836
953.00,5.834
953.20,5.816
953.40,5.874
953.60,5.856
953.80,5.812
954.00,5.864
954.20,5.838
954.40,5.868
954.60,5.82
954.80,5.886
955.00,5.858
955.20,5.866
955.40,5.802
955.60,5.844
955.80,5.824
956.00,5.842
956.20,5.824
956.40,5.858
956.60,5.864
956.80,5.828
957.00,5.834
957.20,5.886
957.40,5.828
957.60,5.814
957.80,5.85
958.00,5.836
958.20,5.808
958.40,5.856
958.60,5.858
958.80,5.86
959.00,5.8
959.20,5.842
959.40,5.858
959.60,5.894
959.80,5.822
960.00,5.868
960.20,5.844
960.40,5.828
960.60,5.858
960.80,5.824
961.00,5.852
961.20,5.866
961.40,5.888
961.60,5.82
961.80,5.828
962.00,5.842
962.20,5.85
962.40,5.836
962.60,5.82
962.80,5.842
963.00,5.86
963.20,5.872
963.40,5.838
963.60,5.838
963.80,5.858
964.00,5.8
964.20,5.866
964.40,5.816
964.60,5.888
964.80,5.866
965.00,5.844
965.20,5.802
965.40,5.838
965.60,5.89
965.80,5.83
966.00,5.856
966.20,5.88
966.40,5.77
966.60,5.88
966.80,5.948
967.00,5.728
967.20,5.864
967.40,5.858
967.60,5.9
967.80,5.812
968.00,5.82
968.20,5.808
968.40,5.902
968.60,5.834
968.80,5.85
969.00,5.874
969.20,5.852
969.40,5.79
969.60,5.828
969.80,5.874
970.00,5.822
970.20,5.864
970.40,5.836
970.60,5.844
970.80,5.846
971.00,5.872
971.20,5.88
971.40,5.798
971.60,5.88
971.80,5.882
972.00,5.852
972.20,5.82
972.40,5.88
972.60,5.778
972.80,5.836
973.00,5.82
973.20,5.852
973.40,5.822
973.60,5.868
973.80,5.856
974.00,5.89
974.20,5.838
974.40,5.828
974.60,5.864
974.80,5.868
975.00,5.79
975.20,5.866
975.40,5.866
975.60,5.828
975.80,5.846
976.00,5.866
976.20,5.756
976.40,5.878
976.60,5.856
976.80,5.828
977.00,5.816
977.20,5.894
977.40,5.822
977.60,5.824
977.80,5.89
978.00,5.844
978.20,5.836
978.40,5.882
978.60,5.846
978.80,5.842
979.00,5.816
979.20,5.852
979.40,5.858
979.60,5.856
979.80,5.874
980.00,5.792
980.20,5.874
980.40,5.902
980.60,5.778
980.80,5.814
981.00,5.844
981.20,5.88
981.40,5.864
981.60,5.798
981.80,5.864
982.00,5.838
982.20,5.834
982.40,5.824
982.60,5.83
982.80,5.842
983.00,5.814
983.20,5.86
983.40,5.858
983.60,5.858
983.80,5.822
984.00,5.856
984.20,5.856
984.40,5.824
984.60,5.868
984.80,5.93
985.00,5.734
985.20,5.852
985.40,5.868
985.60,5.83
985.80,5.816
986.00,5.86
986.20,5.834
986.40,5.888
986.60,5.814
986.80,5.844
987.00,5.828
987.20,5.85
987.40,5.88
987.60,5.8
987.80,5.886
988.00,5.85
988.20,5.82
988.40,5.828
988.60,5.838
988.80,5.842
989.00,5.856
989.20,5.872
989.40,5.836
989.60,5.852
989.80,5.808
990.00,5.858
990.20,5.838
990.40,5.8
990.60,5.836
990.80,5.886
991.00,5.878
991.20,5.798
991.40,5.82
991.60,5.864
991.80,5.82
992.00,5.844
992.20,5.838
992.40,5.844
992.60,5.844
992.80,5.888
993.00,5.868
993.20,5.808
993.40,5.816
993.60,5.924
993.80,5.82
994.00,5.85
994.20,5.846
994.40,5.86
994.60,5.838
994.80,5.858
995.00,5.828
995.20,5.858
995.40,5.852
995.60,5.85
995.80,5.806
996.00,5.85
996.20,5.778
996.40,5.836
996.60,5.86
996.80,5.916
997.00,5.866
997.20,5.846
997.40,5.822
997.60,5.88
997.80,5.828
998.00,5.846
998.20,5.886
998.40,5.824
998.60,5.844
998.80,5.776
999.00,5.844
999.20,5.824
999.40,5.864
999.60,5.856
999.80,5.844
1000.00,5.834
1000.20,5.856
1000.40,5.86
1000.60,5.842
1000.80,5.836
1001.00,5.844
1001.20,5.864
1001.40,5.83
1001.60,5.834
1001.80,5.802
1002.00,5.828
1002.20,5.872
1002.40,5.89
1002.60,5.814
1002.80,5.974
1003.00,5.714
1003.20,5.822
1003.40,5.812
1003.60,5.86
1003.80,5.846
1004.00,5.878
1004.20,5.852
1004.40,5.798
1004.60,5.86
1004.80,5.808
1005.00,5.878
1005.20,5.872
1005.40,5.79
1005.60,5.844
1005.80,5.85
1006.00,5.844
1006.20,5.798
1006.40,5.822
1006.60,5.812
1006.80,5.912
1007.00,5.842
1007.20,5.808
1007.40,5.858
1007.60,5.824
1007.80,5.824
1008.00,5.874
1008.20,5.872
1008.40,5.844
1008.60,5.82
1008.80,5.846
1009.00,5.874
1009.20,5.802
1009.40,5.89
1009.60,5.874
1009.80,5.85
1010.00,5.842
1010.20,5.842
1010.40,5.814
1010.60,5.856
1010.80,5.842
1011.00,5.896
1011.20,5.838
1011.40,5.784
1011.60,5.8
1011.80,5.834
1012.00,5.886
1012.20,5.836
1012.40,5.866
1012.60,5.824
1012.80,5.836
1013.00,5.856
1013.20,5.878
1013.40,5.814
1013.60,5.858
1013.80,5.834
1014.00,5.836
1014.20,5.806
1014.40,5.89
1014.60,5.836
1014.80,5.838
1015.00,5.864
1015.20,5.82
1015.40,5.86
1015.60,5.872
1015.80,5.858
1016.00,5.806
1016.20,5.896
1016.40,5.83
1016.60,5.852
1016.80,5.846
1017.00,5.836
1017.20,5.824
1017.40,5.902
1017.60,5.878
1017.80,5.882
1018.00,5.8
1018.20,5.856
1018.40,5.82
1018.60,5.874
1018.80,5.868
1019.00,5.786
1019.20,5.844
1019.40,5.846
1019.60,5.802
1019.80,5.91
1020.00,5.83
1020.20,5.866
1020.40,5.846
1020.60,5.776
1020.80,5.94
1021.00,5.742
1021.20,5.868
1021.40,5.86
1021.60,5.824
1021.80,5.85
1022.00,5.83
1022.20,5.828
1022.40,5.85
1022.60,5.868
1022.80,5.844
1023.00,5.85
1023.20,5.822
1023.40,5.858
1023.60,5.866
1023.80,5.78
1024.00,5.838
1024.20,5.864
1024.40,5.846
1024.60,5.842
1024.80,5.844
1025.00,5.834
1025.20,5.83
1025.40,5.834
1025.60,5.806
1025.80,5.82
1026.00,5.864
1026.20,5.85
1026.40,5.82
1026.60,5.844
1026.80,5.886
1027.00,5.834
1027.20,5.822
1027.40,5.858
1027.60,5.86
1027.80,5.858
1028.00,5.836
1028.20,5.828
1028.40,5.89
1028.60,5.856
1028.80,5.822
1029.00,5.844
1029.20,5.824
1029.40,5.852
1029.60,5.86
1029.80,5.842
1030.00,5.814
1030.20,5.842
1030.40,5.824
1030.60,5.866
1030.80,5.836
1031.00,5.842
1031.20,5.846
1031.40,5.844
1031.60,5.844
1031.80,5.864
1032.00,5.784
1032.20,5.856
1032.40,5.868
1032.60,5.882
1032.80,5.82
1033.00,5.824
1033.20,5.878
1033.40,5.834
1033.60,5.778
1033.80,5.828
1034.00,5.85
1034.20,5.838
1034.40,5.85
1034.60,5.874
1034.80,5.85
1035.00,5.834
1035.20,5.822
1035.40,5.864
1035.60,5.842
1035.80,5.794
1036.00,5.872
1036.20,5.874
1036.40,5.824
1036.60,5.83
1036.80,5.824
1037.00,5.86
1037.20,5.806
1037.40,5.86
1037.60,5.794
1037.80,5.866
1038.00,5.878
1038.20,5.822
1038.40,5.866
1038.60,5.89
1038.80,5.864
1039.00,5.756
1039.20,5.812
1039.40,5.852
1039.60,5.834
1039.80,5.858
1040.00,5.834
1040.20,5.808
1040.40,5.86
1040.60,5.846
1040.80,5.874
1041.00,5.806
1041.20,5.856
1041.40,5.882
1041.60,5.822
1041.80,5.798
1042.00,5.838
1042.20,5.868
1042.40,5.838
1042.60,5.842
1042.80,5.842
1043.00,5.838
1043.20,5.808
1043.40,5.828
1043.60,5.806
1043.80,5.856
1044.00,5.858
1044.20,5.872
1044.40,5.872
1044.60,5.842
1044.80,5.82
1045.00,5.844
1045.20,5.86
1045.40,5.872
1045.60,5.812
1045.80,5.842
1046.00,5.83
1046.20,5.838
1046.40,5.836
1046.60,5.806
1046.80,5.836
1047.00,5.912
1047.20,5.808
1047.40,5.82
1047.60,5.864
1047.80,5.86
1048.00,5.858
1048.20,5.802
1048.40,5.842
1048.60,5.842
1048.80,5.856
1049.00,5.9
1049.20,5.824
1049.40,5.814
1049.60,5.88
1049.80,5.844
1050.00,5.814
1050.20,5.812
1050.40,5.834
1050.60,5.834
1050.80,5.882
1051.00,5.86
1051.20,5.864
1051.40,5.806
1051.60,5.834
1051.80,5.816
1052.00,5.838
1052.20,5.83
1052.40,5.89
1052.60,5.846
1052.80,5.802
1053.00,5.822
1053.20,5.838
1053.40,5.822
1053.60,5.858
1053.80,5.828
1054.00,5.864
1054.20,5.868
1054.40,5.872
1054.60,5.822
1054.80,5.856
1055.00,5.86
1055.20,5.872
1055.40,5.78
1055.60,5.822
1055.80,5.846
1056.00,5.83
1056.20,5.864
1056.40,5.872
1056.60,5.858
1056.80,5.93
1057.00,5.772
1057.20,5.834
1057.40,5.856
1057.60,5.812
1057.80,5.86
1058.00,5.836
1058.20,5.864
1058.40,5.868
1058.60,5.836
1058.80,5.846
1059.00,5.834
1059.20,5.872
1059.40,5.824
1059.60,5.836
1059.80,5.834
1060.00,5.846
1060.20,5.834
1060.40,5.904
1060.60,5.856
1060.80,5.85
1061.00,5.82
1061.20,5.808
1061.40,5.778
1061.60,5.91
1061.80,5.896
1062.00,5.858
1062.20,5.838
1062.40,5.844
1062.60,5.822
1062.80,5.798
1063.00,5.816
1063.20,5.896
1063.40,5.82
1063.60,5.828
1063.80,5.888
1064.00,5.86
1064.20,5.792
1064.40,5.886
1064.60,5.856
1064.80,5.816
1065.00,5.89
1065.20,5.828
1065.40,5.866
1065.60,5.864
1065.80,5.812
1066.00,5.772
1066.20,5.86
1066.40,5.822
1066.60,5.806
1066.80,5.918
1067.00,5.846
1067.20,5.822
1067.40,5.856
1067.60,5.858
1067.80,5.856
1068.00,5.816
1068.20,5.868
1068.40,5.824
1068.60,5.89
1068.80,5.8
1069.00,5.882
1069.20,5.83
1069.40,5.836
1069.60,5.784
1069.80,5.918
1070.00,5.844
1070.20,5.836
1070.40,5.794
1070.60,5.846
1070.80,5.868
1071.00,5.814
1071.20,5.872
1071.40,5.83
1071.60,5.836
1071.80,5.828
1072.00,5.878
1072.20,5.834
1072.40,5.864
1072.60,5.85
1072.80,5.814
1073.00,5.856
1073.20,5.834
1073.40,5.828
1073.60,5.856
1073.80,5.858
1074.00,5.798
1074.20,5.802
1074.40,5.808
1074.60,5.836
1074.80,5.966
1075.00,5.742
1075.20,5.88
1075.40,5.836
1075.60,5.836
1075.80,5.846
1076.00,5.868
1076.20,5.838
1076.40,5.778
1076.60,5.786
1076.80,5.86
1077.00,5.86
1077.20,5.85
1077.40,5.856
1077.60,5.856
1077.80,5.802
1078.00,5.834
1078.20,5.882
1078.40,5.85
1078.60,5.822
1078.80,5.89
1079.00,5.808
1079.20,5.792
1079.40,5.858
1079.60,5.82
1079.80,5.824
1080.00,5.86
1080.20,5.852
1080.40,5.846
1080.60,5.868
1080.80,5.822
1081.00,5.808
1081.20,5.856
1081.40,5.858
1081.60,5.888
1081.80,5.842
1082.00,5.896
1082.20,5.836
1082.40,5.812
1082.60,5.8
1082.80,5.86
1083.00,5.874
1083.20,5.838
1083.40,5.808
1083.60,5.858
1083.80,5.852
1084.00,5.86
1084.20,5.83
1084.40,5.85
1084.60,5.83
1084.80,5.83
1085.00,5.812
1085.20,5.86
1085.40,5.868
1085.60,5.868
1085.80,5.868
1086.00,5.824
1086.20,5.856
1086.40,5.894
1086.60,5.864
1086.80,5.824
1087.00,5.824
1087.20,5.838
1087.40,5.836
1087.60,5.838
1087.80,5.86
1088.00,5.838
1088.20,5.842
1088.40,5.82
1088.60,5.836
1088.80,5.816
1089.00,5.772
1089.20,5.864
1089.40,5.874
1089.60,5.886
1089.80,5.834
1090.00,5.824
1090.20,5.858
1090.40,5.868
1090.60,5.844
1090.80,5.856
1091.00,5.808
1091.20,5.824
1091.40,5.844
1091.60,5.82
1091.80,5.872
1092.00,5.836
1092.20,5.85
1092.40,5.836
1092.60,5.88
1092.80,5.91
1093.00,5.756
1093.20,5.846
1093.40,5.816
1093.60,5.836
1093.80,5.874
1094.00,5.834
1094.20,5.82
1094.40,5.814
1094.60,5.894
1094.80,5.808
1095.00,5.828
1095.20,5.856
1095.40,5.85
1095.60,5.852
1095.80,5.838
1096.00,5.896
1096.20,5.824
1096.40,5.824
1096.60,5.83
1096.80,5.886
1097.00,5.824
1097.20,5.85
1097.40,5.874
1097.60,5.844
1097.80,5.842
1098.00,5.828
1098.20,5.894
1098.40,5.858
1098.60,5.844
1098.80,5.836
1099.00,5.828
1099.20,5.836
1099.40,5.9
1099.60,5.852
1099.80,5.872
1100.00,5.776
1100.20,5.85
1100.40,5.834
1100.60,5.812
1100.80,5.846
1101.00,5.88
1101.20,5.85
1101.40,5.852
1101.60,5.846
1101.80,5.838
1102.00,5.85
1102.20,5.794
1102.40,5.816
1102.60,5.822
1102.80,5.844
1103.00,5.802
1103.20,5.808
1103.40,5.814
1103.60,5.874
1103.80,5.834
1104.00,5.866
1104.20,5.814
1104.40,5.842
1104.60,5.838
1104.80,5.922
1105.00,5.768
1105.20,5.802
1105.40,5.794
1105.60,5.866
1105.80,5.858
1106.00,5.866
1106.20,5.806
1106.40,5.85
1106.60,5.846
1106.80,5.83
1107.00,5.872
1107.20,5.83
1107.40,5.838
1107.60,5.836
1107.80,5.836
1108.00,5.842
1108.20,5.82
1108.40,5.874
1108.60,5.828
1108.80,5.842
1109.00,5.79
1109.20,5.886
1109.40,5.878
1109.60,5.812
1109.80,5.802
1110.00,5.868
1110.20,5.834
1110.40,5.79
1110.60,5.814
1110.80,5.984
1111.00,5.758
1111.20,5.834
1111.40,5.864
1111.60,5.846
1111.80,5.878
1112.00,5.824
1112.20,5.85
1112.40,5.828
1112.60,5.844
1112.80,5.83
1113.00,5.828
1113.20,5.83
1113.40,5.802
1113.60,5.844
1113.80,5.858
1114.00,5.834
1114.20,5.834
1114.40,5.836
1114.60,5.814
1114.80,5.852
1115.00,5.868
1115.20,5.88
1115.40,5.846
1115.60,5.812
1115.80,5.842
1116.00,5.834
1116.20,5.864
1116.40,5.846
1116.60,5.842
1116.80,5.846
1117.00,5.838
1117.20,5.88
1117.40,5.814
1117.60,5.918
1117.80,5.82
1118.00,5.88
1118.20,5.852
1118.40,5.808
1118.60,5.812
1118.80,5.834
1119.00,5.792
1119.20,5.868
1119.40,5.844
1119.60,5.83
1119.80,5.88
1120.00,5.868
1120.20,5.842
1120.40,5.888
1120.60,5.824
1120.80,5.812
1121.00,5.824
1121.20,5.842
1121.40,5.768
1121.60,5.882
1121.80,5.868
1122.00,5.772
1122.20,5.836
1122.40,5.868
1122.60,5.85
1122.80,5.844
1123.00,5.858
1123.20,5.864
1123.40,5.822
1123.60,5.808
1123.80,5.86
1124.00,5.894
1124.20,5.846
1124.40,5.824
1124.60,5.82
1124.80,5.85
1125.00,5.794
1125.20,5.868
1125.40,5.822
1125.60,5.846
1125.80,5.9
1126.00,5.828
1126.20,5.85
1126.40,5.85
1126.60,5.8
1126.80,5.85
1127.00,5.882
1127.20,5.864
1127.40,5.86
1127.60,5.82
1127.80,5.824
1128.00,5.814
1128.20,5.872
1128.40,5.86
1128.60,5.894
1128.80,5.908
1129.00,5.734
1129.20,5.836
1129.40,5.858
1129.60,5.83
1129.80,5.83
1130.00,5.868
1130.20,5.834
1130.40,5.886
1130.60,5.85
1130.80,5.85
1131.00,5.878
1131.20,5.792
1131.40,5.838
1131.60,5.868
1131.80,5.802
1132.00,5.83
1132.20,5.85
1132.40,5.834
1132.60,5.844
1132.80,5.824
1133.00,5.868
1133.20,5.834
1133.40,5.836
1133.60,5.844
1133.80,5.814
1134.00,5.838
1134.20,5.852
1134.40,5.834
1134.60,5.824
1134.80,5.856
1135.00,5.868
1135.20,5.83
1135.40,5.858
1135.60,5.842
1135.80,5.816
1136.00,5.822
1136.20,5.864
1136.40,5.878
1136.60,5.808
1136.80,5.786
1137.00,5.872
1137.20,5.824
1137.40,5.864
1137.60,5.88
1137.80,5.822
1138.00,5.798
1138.20,5.86
1138.40,5.886
1138.60,5.864
1138.80,5.828
1139.00,5.856
1139.20,5.872
1139.40,5.828
1139.60,5.842
1139.80,5.82
1140.00,5.798
1140.20,5.838
1140.40,5.872
1140.60,5.844
1140.80,5.822
1141.00,5.858
1141.20,5.802
1141.40,5.846
1141.60,5.846
1141.80,5.85
1142.00,5.824
1142.20,5.864
1142.40,5.88
1142.60,5.786
1142.80,5.844
1143.00,5.844
1143.20,5.802
1143.40,5.856
1143.60,5.814
1143.80,5.874
1144.00,5.85
1144.20,5.836
1144.40,5.844
1144.60,5.82
1144.80,5.814
1145.00,5.828
1145.20,5.838
1145.40,5.888
1145.60,5.886
1145.80,5.828
1146.00,5.834
1146.20,5.816
1146.40,5.834
1146.60,5.878
1146.80,5.886
1147.00,5.786
1147.20,5.836
1147.40,5.878
1147.60,5.838
1147.80,5.82
1148.00,5.864
1148.20,5.824
1148.40,5.864
1148.60,5.886
1148.80,5.812
1149.00,5.846
1149.20,5.806
1149.40,5.894
1149.60,5.814
1149.80,5.886
1150.00,5.814
1150.20,5.858
1150.40,5.836
1150.60,5.846
1150.80,5.866
1151.00,5.846
1151.20,5.824
1151.40,5.802
1151.60,5.888
1151.80,5.816
1152.00,5.83
1152.20,5.868
1152.40,5.846
1152.60,5.842
1152.80,5.824
1153.00,5.88
1153.20,5.816
1153.40,5.834
1153.60,5.858
1153.80,5.808
1154.00,5.874
1154.20,5.836
1154.40,5.866
1154.60,5.846
1154.80,5.842
1155.00,5.856
1155.20,5.858
1155.40,5.836
1155.60,5.872
1155.80,5.834
1156.00,5.828
1156.20,5.864
1156.40,5.786
1156.60,5.858
1156.80,5.846
1157.00,5.852
1157.20,5.846
1157.40,5.824
1157.60,5.814
1157.80,5.852
1158.00,5.864
1158.20,5.858
1158.40,5.79
1158.60,5.852
1158.80,5.866
1159.00,5.858
1159.20,5.89
1159.40,5.874
1159.60,5.794
1159.80,5.812
1160.00,5.82
1160.20,5.886
1160.40,5.85
1160.60,5.882
1160.80,5.834
1161.00,5.844
1161.20,5.83
1161.40,5.822
1161.60,5.874
1161.80,5.85
1162.00,5.822
1162.20,5.836
1162.40,5.824
1162.60,5.902
1162.80,5.844
1163.00,5.83
1163.20,5.89
1163.40,5.812
1163.60,5.878
1163.80,5.836
1164.00,5.878
1164.20,5.842
1164.40,5.822
1164.60,5.872
1164.80,5.94
1165.00,5.756
1165.20,5.82
1165.40,5.86
1165.60,5.842
1165.80,5.858
1166.00,5.838
1166.20,5.858
1166.40,5.816
1166.60,5.822
1166.80,5.89
1167.00,5.822
1167.20,5.866
1167.40,5.868
1167.60,5.824
1167.80,5.814
1168.00,5.83
1168.20,5.932
1168.40,5.904
1168.60,5.828
1168.80,5.886
1169.00,5.78
1169.20,5.856
1169.40,5.83
1169.60,5.806
1169.80,5.88
1170.00,5.838
1170.20,5.868
1170.40,5.836
1170.60,5.834
1170.80,5.856
1171.00,5.85
1171.20,5.858
1171.40,5.842
1171.60,5.896
1171.80,5.86
1172.00,5.852
1172.20,5.842
1172.40,5.85
1172.60,5.816
1172.80,5.846
1173.00,5.85
1173.20,5.83
1173.40,5.856
1173.60,5.86
1173.80,5.894
1174.00,5.822
1174.20,5.878
1174.40,5.868
1174.60,5.878
1174.80,5.842
1175.00,5.86
1175.20,5.872
1175.40,5.822
1175.60,5.866
1175.80,5.836
1176.00,5.904
1176.20,5.842
1176.40,5.824
1176.60,5.824
1176.80,5.816
1177.00,5.864
1177.20,5.836
1177.40,5.858
1177.60,5.842
1177.80,5.824
1178.00,5.9
1178.20,5.85
1178.40,5.858
1178.60,5.812
1178.80,5.842
1179.00,5.852
1179.20,5.88
1179.40,5.852
1179.60,5.85
1179.80,5.894
1180.00,5.864
1180.20,5.844
1180.40,5.836
1180.60,5.846
1180.80,5.794
1181.00,5.916
1181.20,5.866
1181.40,5.798
1181.60,5.844
1181.80,5.868
1182.00,5.878
1182.20,5.85
1182.40,5.86
1182.60,5.824
1182.80,5.926
1183.00,5.806
1183.20,5.844
1183.40,5.856
1183.60,5.824
1183.80,5.89
1184.00,5.786
1184.20,5.894
1184.40,5.824
1184.60,5.834
1184.80,5.922
1185.00,5.834
1185.20,5.828
1185.40,5.89
1185.60,5.858
1185.80,5.836
1186.00,5.822
1186.20,5.852
1186.40,5.902
1186.60,5.858
1186.80,5.812
1187.00,5.858
1187.20,5.846
1187.40,5.824
1187.60,5.852
1187.80,5.86
1188.00,5.836
1188.20,5.792
1188.40,5.824
1188.60,5.886
1188.80,5.834
1189.00,5.864
1189.20,5.858
1189.40,5.822
1189.60,5.852
1189.80,5.866
1190.00,5.85
1190.20,5.798
1190.40,5.88
1190.60,5.868
1190.80,5.846
1191.00,5.828
1191.20,5.784
1191.40,5.868
1191.80,5.856
1192.00,5.838
1192.20,5.804
1192.40,5.87
1192.60,5.89
1192.80,5.87
1193.00,5.822
1193.20,5.812
1193.40,5.812
1193.60,5.87
1193.80,5.848
1194.00,5.846
1194.20,5.854
1194.40,5.87
1194.60,5.84
1194.80,5.826
1195.00,5.86
1195.20,5.824
1195.40,5.832
1195.60,5.906
1195.80,5.816
1196.00,5.896
1196.20,5.84
1196.40,5.862
1196.60,5.8
1196.80,5.876
1197.00,5.826
1197.20,5.834
1197.40,5.854
1197.60,5.826
1197.80,5.892
1198.00,5.904
1198.20,5.79
1198.40,5.87
1198.60,5.834
1198.80,5.854
1199.00,5.81
1199.20,5.844
1199.40,5.832
1199.60,5.816
1199.80,5.878
1200.00,5.874
1200.20,5.824
1200.40,5.854
1200.60,5.834
1200.80,5.854
1201.00,5.79
1201.20,5.898
1201.40,5.898
1201.60,5.83
1201.80,5.866
1202.00,5.888
1202.20,5.884
1202.40,5.812
1202.60,5.854
1202.80,5.848
1203.00,5.848
1203.20,5.804
1203.40,5.896
1203.60,5.84
1203.80,5.832
1204.00,5.834
1204.20,5.848
1204.40,5.812
1204.60,5.896
1204.80,5.876
1205.00,5.9
1205.20,5.832
1205.40,5.818
1205.60,5.9
1205.80,5.844
1206.00,5.818
1206.20,5.87
1206.40,5.852
1206.60,5.856
1206.80,5.832
1207.00,5.866
1207.20,5.854
1207.40,5.878
1207.60,5.846
1207.80,5.844
1208.00,5.874
1208.20,5.86
1208.40,5.87
1208.60,5.826
1208.80,5.89
1209.00,5.826
1209.20,5.89
1209.40,5.786
1209.60,5.852
1209.80,5.87
1210.00,5.876
1210.20,5.846
1210.40,5.876
1210.60,5.854
1210.80,5.852
1211.00,5.818
1211.20,5.846
1211.40,5.832
1211.60,5.882
1211.80,5.848
1212.00,5.904
1212.20,5.862
1212.40,5.83
1212.60,5.86
1212.80,5.846
1213.00,5.844
1213.20,5.824
1213.40,5.868
1213.60,5.834
1213.80,5.86
1214.00,5.896
1214.20,5.826
1214.40,5.838
1214.60,5.802
1214.80,5.884
1215.00,5.876
1215.20,5.848
1215.40,5.852
1215.60,5.844
1215.80,5.848
1216.00,5.958
1216.20,5.73
1216.40,5.856
1216.60,5.892
1216.80,5.868
1217.00,5.824
1217.20,5.866
1217.40,5.87
1217.60,5.826
1217.80,5.844
1218.00,5.83
1218.20,5.846
1218.40,5.878
1218.60,5.856
1218.80,5.846
1219.00,5.826
1219.20,5.86
1219.40,5.914
1219.60,5.824
1219.80,5.876
1220.00,5.794
1220.20,5.834
1220.40,5.846
1220.60,5.832
1220.80,5.86
1221.00,5.84
1221.20,5.882
1221.40,5.812
1221.60,5.878
1221.80,5.91
1222.00,5.822
1222.20,5.878
1222.40,5.844
1222.60,5.852
1222.80,5.834
1223.00,5.834
1223.20,5.84
1223.40,5.854
1223.60,5.832
1223.80,5.868
1224.00,5.846
1224.20,5.834
1224.40,5.868
1224.60,5.802
1224.80,5.856
1225.00,5.86
1225.20,5.86
1225.40,5.824
1225.60,5.884
1225.80,5.832
1226.00,5.844
1226.20,5.854
1226.40,5.824
1226.60,5.846
1226.80,5.83
1227.00,5.832
1227.20,5.846
1227.40,5.86
1227.60,5.856
1227.80,5.794
1228.00,5.86
1228.20,5.878
1228.40,5.856
1228.60,5.856
1228.80,5.862
1229.00,5.866
1229.20,5.816
1229.40,5.808
1229.60,5.826
1229.80,5.856
1230.00,5.892
1230.20,5.87
1230.40,5.84
1230.60,5.854
1230.80,5.87
1231.00,5.83
1231.20,5.91
1231.40,5.796
1231.60,5.878
1231.80,5.84
1232.00,5.818
1232.20,5.78
1232.40,5.844
1232.60,5.862
1232.80,5.862
1233.00,5.866
1233.20,5.824
1233.40,5.854
1233.60,5.884
1233.80,5.808
1234.00,5.992
1234.20,5.778
1234.40,5.832
1234.60,5.834
1234.80,5.854
1235.00,5.846
1235.20,5.852
1235.40,5.84
1235.60,5.826
1235.80,5.86
1236.00,5.84
1236.20,5.862
1236.40,5.826
1236.60,5.878
1236.80,5.846
1237.00,5.81
1237.20,5.854
1237.40,5.868
1237.60,5.83
1237.80,5.866
1238.00,5.84
1238.20,5.812
1238.40,5.846
1238.60,5.834
1238.80,5.86
1239.00,5.87
1239.20,5.868
1239.40,5.824
1239.60,5.876
1239.80,5.822
1240.00,5.852
1240.20,5.844
1240.40,5.884
1240.60,5.874
1240.80,5.882
1241.00,5.804
1241.20,5.856
1241.40,5.846
1241.60,5.83
1241.80,5.822
1242.00,5.876
1242.20,5.826
1242.40,5.838
1242.60,5.874
1242.80,5.866
1243.00,5.818
1243.20,5.906
1243.40,5.848
1243.60,5.834
1243.80,5.83
1244.00,5.844
1244.20,5.852
1244.40,5.918
1244.60,5.862
1244.80,5.79
1245.00,5.856
1245.20,5.808
1245.40,5.826
1245.60,5.846
1245.80,5.876
1246.00,5.866
1246.20,5.87
1246.40,5.876
1246.60,5.812
1246.80,5.876
1247.00,5.846
1247.20,5.874
1247.40,5.812
1247.60,5.834
1247.80,5.856
1248.00,5.846
1248.20,5.812
1248.40,5.898
1248.60,5.846
1248.80,5.802
1249.00,5.862
1249.20,5.856
1249.40,5.846
1249.60,5.832
1249.80,5.822
1250.00,5.89
1250.20,5.838
1250.40,5.832
1250.60,5.846
1250.80,5.856
1251.00,5.868
1251.20,5.876
1251.40,5.84
1251.60,5.854
1251.80,5.874
1252.00,5.972
1252.20,5.76
1252.40,5.824
1252.60,5.874
1252.80,5.834
1253.00,5.852
1253.20,5.838
1253.40,5.84
1253.60,5.834
1253.80,5.824
1254.00,5.868
1254.20,5.84
1254.40,5.838
1254.60,5.9
1254.80,5.848
1255.00,5.804
1255.20,5.884
1255.40,5.856
1255.60,5.868
1255.80,5.866
1256.00,5.856
1256.20,5.844
1256.40,5.87
1256.60,5.824
1256.80,5.844
1257.00,5.874
1257.20,5.826
1257.40,5.868
1257.60,5.83
1257.80,5.87
1258.00,5.816
1258.20,5.856
1258.40,5.846
1258.60,5.866
1258.80,5.852
1259.00,5.862
1259.20,5.846
1259.40,5.87
1259.60,5.802
1259.80,5.832
1260.00,5.832
1260.20,5.862
1260.40,5.862
1260.60,5.852
1260.80,5.824
1261.00,5.89
1261.20,5.824
1261.40,5.846
1261.60,5.914
1261.80,5.766
1262.00,5.866
1262.20,5.86
1262.40,5.87
1262.60,5.856
1262.80,5.912
1263.00,5.87
1263.20,5.822
1263.40,5.846
1263.60,5.876
1263.80,5.838
1264.00,5.868
1264.20,5.848
1264.40,5.818
1264.60,5.866
1264.80,5.848
1265.00,5.838
1265.20,5.87
1265.40,5.868
1265.60,5.832
1265.80,5.862
1266.00,5.84
1266.20,5.914
1266.40,5.84
1266.60,5.844
1266.80,5.816
1267.00,5.822
1267.20,5.824
1267.40,5.898
1267.60,5.86
1267.80,5.834
1268.00,5.852
1268.20,5.84
1268.40,5.854
1268.60,5.904
1268.80,5.822
1269.00,5.834
1269.20,5.856
1269.40,5.854
1269.60,5.804
1269.80,5.808
1270.00,5.934
1270.20,5.786
1270.40,5.876
1270.60,5.888
1270.80,5.876
1271.00,5.898
1271.20,5.794
1271.40,5.838
1271.60,5.848
1271.80,5.824
1272.00,5.822
1272.20,5.896
1272.40,5.826
1272.60,5.844
1272.80,5.876
1273.00,5.89
1273.20,5.812
1273.40,5.876
1273.60,5.83
1273.80,5.878
1274.00,5.884
1274.20,5.812
1274.40,5.878
1274.60,5.852
1274.80,5.832
1275.00,5.854
1275.20,5.822
1275.40,5.87
1275.60,5.854
1275.80,5.844
1276.00,5.834
1276.20,5.846
1276.40,5.81
1276.60,5.914
1276.80,5.838
1277.00,5.804
1277.20,5.86
1277.40,5.89
1277.60,5.844
1277.80,5.92
1278.00,5.808
1278.20,5.844
1278.40,5.824
1278.60,5.848
1278.80,5.862
1279.00,5.848
1279.20,5.852
1279.40,5.882
1279.60,5.856
1279.80,5.838
1280.00,5.852
1280.20,5.87
1280.40,5.822
1280.60,5.844
1280.80,5.888
1281.00,5.854
1281.20,5.81
1281.40,5.87
1281.60,5.826
1281.80,5.852
1282.00,5.866
1282.20,5.852
1282.40,5.808
1282.60,5.876
1282.80,5.856
1283.00,5.856
1283.20,5.852
1283.40,5.862
1283.60,5.852
1283.80,5.846
1284.00,5.834
1284.20,5.876
1284.40,5.868
1284.60,5.868
1284.80,5.84
1285.00,5.846
1285.20,5.89
1285.40,5.81
1285.60,5.818
1285.80,5.856
1286.00,5.862
1286.20,5.84
1286.40,5.852
1286.60,5.816
1286.80,5.846
1287.00,5.856
1287.20,5.862
1287.40,5.832
1287.60,5.826
1287.80,5.846
1288.00,5.986
1288.20,5.752
1288.40,5.834
1288.60,5.826
1288.80,5.862
1289.00,5.822
1289.20,5.898
1289.40,5.788
1289.60,5.832
1289.80,5.934
1290.00,5.832
1290.20,5.856
1290.40,5.856
1290.60,5.838
1290.80,5.844
1291.00,5.934
1291.20,5.844
1291.40,5.83
1291.60,5.876
1291.80,5.876
1292.00,5.846
1292.20,5.868
1292.40,5.808
1292.60,5.866
1292.80,5.866
1293.00,5.854
1293.20,5.846
1293.40,5.764
1293.60,5.868
1293.80,5.86
1294.00,5.874
1294.20,5.876
1294.40,5.796
1294.60,5.866
1294.80,5.846
1295.00,5.846
1295.20,5.856
1295.40,5.8
1295.60,5.854
1295.80,5.914
1296.00,5.854
1296.20,5.818
1296.40,5.83
1296.60,5.848
1296.80,5.818
1297.00,5.884
1297.20,5.844
1297.40,5.824
1297.60,5.848
1297.80,5.848
1298.00,5.86
1298.20,5.844
1298.40,5.878
1298.60,5.862
1298.80,5.868
1299.00,5.826
1299.20,5.84
1299.40,5.808
1299.60,5.874
1299.80,5.826
1300.00,5.888
1300.20,5.848
1300.40,5.892
1300.60,5.87
1300.80,5.876
1301.00,5.846
1301.20,5.846
1301.40,5.816
1301.60,5.826
1301.80,5.866
1302.00,5.882
1302.20,5.848
1302.40,5.816
1302.60,5.868
1302.80,5.83
1303.00,5.866
1303.20,5.782
1303.40,5.862
1303.60,5.884
1303.80,5.856
1304.00,5.832
1304.20,5.878
1304.40,5.856
1304.60,5.84
1304.80,5.794
1305.00,5.854
1305.20,5.906
1305.40,5.862
1305.60,5.826
1305.80,5.844
1306.00,5.978
1306.20,5.752
1306.40,5.838
1306.60,5.818
1306.80,5.844
1307.00,5.926
1307.20,5.846
1307.40,5.79
1307.60,5.892
1307.80,5.848
1308.00,5.852
1308.20,5.838
1308.40,5.852
1308.60,5.868
1308.80,5.838
1309.00,5.846
1309.20,5.808
1309.40,5.796
1309.60,5.866
1309.80,5.868
1310.00,5.838
1310.20,5.854
1310.40,5.892
1310.60,5.822
1310.80,5.834
1311.00,5.87
1311.20,5.854
1311.40,5.84
1311.60,5.868
1311.80,5.8
1312.00,5.89
1312.20,5.9
1312.40,5.824
1312.60,5.892
1312.80,5.786
1313.00,5.896
1313.20,5.86
1313.40,5.826
1313.60,5.874
1313.80,5.81
1314.00,5.832
1314.20,5.824
1314.40,5.84
1314.60,5.832
1314.80,5.856
1315.00,5.884
1315.20,5.892
1315.40,5.86
1315.60,5.81
1315.80,5.838
1316.00,5.838
1316.20,5.876
1316.40,5.844
1316.60,5.838
1316.80,5.882
1317.00,5.866
1317.20,5.874
1317.40,5.824
1317.60,5.854
1317.80,5.838
1318.00,5.848
1318.20,5.824
1318.40,5.844
1318.60,5.862
1318.80,5.87
1319.00,5.826
1319.20,5.86
1319.40,5.854
1319.60,5.83
1319.80,5.856
1320.00,5.816
1320.20,5.826
1320.40,5.838
1320.60,5.852
1320.80,5.848
1321.00,5.854
1321.20,5.87
1321.40,5.86
1321.60,5.834
1321.80,5.848
1322.00,5.86
1322.20,5.866
1322.40,5.874
1322.60,5.822
1322.80,5.868
1323.00,5.818
1323.20,5.862
1323.40,5.876
1323.60,5.84
1323.80,5.832
1324.00,5.964
1324.20,5.772
1324.40,5.816
1324.60,5.876
1324.80,5.882
1325.00,5.84
1325.20,5.856
1325.40,5.884
1325.60,5.802
1325.80,5.86
1326.00,5.906
1326.20,5.816
1326.40,5.826
1326.60,5.802
1326.80,5.862
1327.00,5.812
1327.20,5.896
1327.40,5.856
1327.60,5.844
1327.80,5.83
1328.00,5.878
1328.20,5.86
1328.40,5.832
1328.60,5.87
1328.80,5.826
1329.00,5.882
1329.20,5.86
1329.40,5.854
1329.60,5.826
1329.80,5.856
1330.00,5.856
1330.20,5.834
1330.40,5.874
1330.60,5.86
1330.80,5.81
1331.00,5.856
1331.20,5.868
1331.40,5.816
1331.60,5.868
1331.80,5.846
1332.00,5.868
1332.20,5.848
1332.40,5.86
1332.60,5.854
1332.80,5.846
1333.00,5.848
1333.20,5.868
1333.40,5.802
1333.60,5.904
1333.80,5.852
1334.00,5.882
1334.20,5.818
1334.40,5.824
1334.60,5.848
1334.80,5.856
1335.00,5.856
1335.20,5.928
1335.40,5.838
1335.60,5.856
1335.80,5.826
1336.00,5.816
1336.20,5.83
1336.40,5.84
1336.60,5.802
1336.80,5.848
1337.00,5.848
1337.20,5.854
1337.40,5.856
1337.60,5.838
1337.80,5.856
1338.00,5.876
1338.20,5.848
1338.40,5.824
1338.60,5.868
1338.80,5.866
1339.00,5.83
1339.20,5.832
1339.40,5.868
1339.60,5.874
1339.80,5.874
1340.00,5.78
1340.20,5.846
1340.40,5.854
1340.60,5.878
1340.80,5.832
1341.00,5.884
1341.20,5.856
1341.40,5.844
1341.60,5.878
1341.80,5.878
1342.00,5.984
1342.20,5.736
1342.40,5.802
1342.60,5.848
1342.80,5.822
1343.00,5.86
1343.20,5.84
1343.40,5.884
1343.60,5.812
1343.80,5.812
1344.00,5.882
1344.20,5.838
1344.40,5.898
1344.60,5.8
1344.80,5.824
1345.00,5.888
1345.20,5.834
1345.40,5.824
1345.60,5.83
1345.80,5.904
1346.00,5.852
1346.20,5.862
1346.40,5.898
1346.60,5.832
1346.80,5.878
1347.00,5.838
1347.20,5.818
1347.40,5.824
1347.60,5.848
1347.80,5.824
1348.00,5.844
1348.20,5.848
1348.40,5.888
1348.60,5.856
1348.80,5.87
1349.00,5.826
1349.20,5.876
1349.40,5.834
1349.60,5.802
1349.80,5.844
1350.00,5.882
1350.20,5.862
1350.40,5.86
1350.60,5.83
1350.80,5.89
1351.00,5.824
1351.20,5.83
1351.40,5.854
1351.60,5.83
1351.80,5.892
1352.00,5.838
1352.20,5.868
1352.40,5.874
1352.60,5.878
1352.80,5.788
1353.00,5.878
1353.20,5.884
1353.40,5.876
1353.60,5.846
1353.80,5.838
1354.00,5.84
1354.20,5.824
1354.40,5.848
1354.60,5.826
1354.80,5.904
1355.00,5.826
1355.20,5.846
1355.40,5.848
1355.60,5.86
1355.80,5.824
1356.00,5.868
1356.20,5.87
1356.40,5.89
1356.60,5.826
1356.80,5.848
1357.00,5.854
1357.20,5.84
1357.40,5.866
1357.60,5.788
1357.80,5.912
1358.00,5.832
1358.20,5.84
1358.40,5.83
1358.60,5.848
1358.80,5.862
1359.00,5.826
1359.20,5.838
1359.40,5.866
1359.60,5.852
1359.80,5.862
1360.00,5.934
1360.20,5.72
1360.40,5.868
1360.60,5.86
1360.80,5.804
1361.00,5.818
1361.20,5.854
1361.40,5.854
1361.60,5.838
1361.80,5.794
1362.00,5.83
1362.20,5.89
1362.40,5.83
1362.60,5.89
1362.80,5.844
1363.00,5.838
1363.20,5.844
1363.40,5.868
1363.60,5.874
1363.80,5.816
1364.00,5.838
1364.20,5.866
1364.40,5.882
1364.60,5.888
1364.80,5.832
1365.00,5.888
1365.20,5.856
1365.40,5.812
1365.60,5.892
1365.80,5.804
1366.00,5.804
1366.20,5.87
1366.40,5.834
1366.60,5.856
1366.80,5.844
1367.00,5.824
1367.20,5.874
1367.40,5.898
1367.60,5.826
1367.80,5.862
1368.00,5.868
1368.20,5.844
1368.40,5.846
1368.60,5.844
1368.80,5.84
1369.00,5.848
1369.20,5.838
1369.40,5.854
1369.60,5.866
1369.80,5.892
1370.00,5.802
1370.20,5.87
1370.40,5.846
1370.60,5.852
1370.80,5.876
1371.00,5.802
1371.20,5.862
1371.40,5.816
1371.60,5.838
1371.80,5.846
1372.00,5.83
1372.20,5.86
1372.40,5.826
1372.60,5.876
1372.80,5.87
1373.00,5.874
1373.20,5.888
1373.40,5.81
1373.60,5.826
1373.80,5.874
1374.00,5.81
1374.20,5.906
1374.40,5.794
1374.60,5.838
1374.80,5.852
1375.00,5.846
1375.20,5.862
1375.40,5.83
1375.60,5.866
1375.80,5.824
1376.00,5.89
1376.20,5.826
1376.40,5.848
1376.60,5.868
1376.80,5.812
1377.00,5.848
1377.20,5.846
1377.40,5.834
1377.60,5.9
1377.80,5.892
1378.00,5.912
1378.20,5.778
1378.40,5.834
1378.60,5.786
1378.80,5.854
1379.00,5.854
1379.20,5.852
1379.40,5.818
1379.60,5.868
1379.80,5.868
1380.00,5.788
1380.20,5.91
1380.40,5.868
1380.60,5.856
1380.80,5.862
1381.00,5.884
1381.20,5.834
1381.40,5.87
1381.60,5.818
1381.80,5.846
1382.00,5.874
1382.20,5.852
1382.40,5.87
1382.60,5.804
1382.80,5.804
1383.00,5.878
1383.20,5.846
1383.40,5.888
1383.60,5.822
1383.80,5.822
1384.00,5.9
1384.20,5.882
1384.40,5.856
1384.60,5.86
1384.80,5.816
1385.00,5.868
1385.20,5.866
1385.40,5.84
1385.60,5.756
1385.80,5.878
1386.00,5.832
1386.20,5.854
1386.40,5.862
1386.60,5.834
1386.80,5.866
1387.00,5.834
1387.20,5.81
1387.40,5.874
1387.60,5.868
1387.80,5.844
1388.00,5.89
1388.20,5.826
1388.40,5.818
1388.60,5.84
1388.80,5.824
1389.00,5.874
1389.20,5.826
1389.40,5.868
1389.60,5.838
1389.80,5.882
1390.00,5.794
1390.20,5.826
1390.40,5.848
1390.60,5.878
1390.80,5.844
1391.00,5.868
1391.20,5.84
1391.40,5.862
1391.60,5.84
1391.80,5.868
1392.00,5.83
1392.20,5.838
1392.40,5.832
1392.60,5.852
1392.80,5.844
1393.00,5.854
1393.20,5.882
1393.40,5.848
1393.60,5.868
1393.80,5.804
1394.00,5.852
1394.20,5.812
1394.40,5.846
1394.60,5.9
1394.80,5.832
1395.00,5.898
1395.20,5.834
1395.40,5.866
1395.60,5.834
1395.80,5.846
1396.00,5.912
1396.20,5.756
1396.40,5.856
1396.60,5.866
1396.80,5.856
1397.00,5.854
1397.20,5.876
1397.40,5.826
1397.60,5.846
1397.80,5.848
1398.00,5.816
1398.20,5.854
1398.40,5.856
1398.60,5.832
1398.80,5.854
1399.00,5.888
1399.20,5.834
1399.40,5.866
1399.60,5.812
1399.80,5.866
1400.00,5.844
1400.20,5.834
1400.40,5.87
1400.60,5.79
1400.80,5.884
1401.00,5.9
1401.20,5.838
1401.40,5.896
1401.60,5.846
1401.80,5.826
1402.00,5.844
1402.20,5.854
1402.40,5.834
1402.60,5.884
1402.80,5.846
1403.00,5.868
1403.20,5.816
1403.40,5.876
1403.60,5.83
1403.80,5.852
1404.00,5.866
1404.20,5.846
1404.40,5.79
1404.60,5.86
1404.80,5.846
1405.00,5.838
1405.20,5.854
1405.40,5.892
1405.60,5.844
1405.80,5.826
1406.00,5.812
1406.20,5.866
1406.40,5.898
1406.60,5.854
1406.80,5.87
1407.00,5.84
1407.20,5.844
1407.40,5.84
1407.60,5.834
1407.80,5.848
1408.00,5.818
1408.20,5.884
1408.40,5.832
1408.60,5.846
1408.80,5.89
1409.00,5.852
1409.20,5.834
1409.40,5.834
1409.60,5.854
1409.80,5.84
1410.00,5.89
1410.20,5.84
1410.40,5.84
1410.60,5.848
1410.80,5.824
1411.00,5.874
1411.20,5.866
1411.40,5.846
1411.60,5.838
1411.80,5.838
1412.00,5.852
1412.20,5.874
1412.40,5.824
1412.60,5.866
1412.80,5.826
1413.00,5.87
1413.20,5.822
1413.40,5.84
1413.60,5.86
1413.80,5.866
1414.00,5.93
1414.20,5.804
1414.40,5.856
1414.60,5.882
1414.80,5.856
1415.00,5.832
1415.20,5.87
1415.40,5.882
1415.60,5.83
1415.80,5.818
1416.00,5.856
1416.20,5.876
1416.40,5.862
1416.60,5.826
1416.80,5.866
1417.00,5.812
1417.20,5.862
1417.40,5.9
1417.60,5.848
1417.80,5.804
1418.00,5.856
1418.20,5.862
1418.40,5.86
1418.60,5.832
1418.80,5.832
1419.00,5.844
1419.20,5.856
1419.40,5.834
1419.60,5.856
1419.80,5.844
1420.00,5.812
1420.20,5.84
1420.40,5.832
1420.60,5.832
1420.80,5.86
1421.00,5.866
1421.20,5.86
1421.40,5.84
1421.60,5.862
1421.80,5.868
1422.00,5.86
1422.20,5.868
1422.40,5.8
1422.60,5.848
1422.80,5.84
1423.00,5.812
1423.20,5.81
1423.40,5.812
1423.60,5.892
1423.80,5.874
1424.00,5.824
1424.20,5.848
1424.40,5.818
1424.60,5.906
1424.80,5.846
1425.00,5.856
1425.20,5.87
1425.40,5.826
1425.60,5.856
1425.80,5.862
1426.00,5.826
1426.20,5.884
1426.40,5.846
1426.60,5.854
1426.80,5.848
1427.00,5.846
1427.20,5.824
1427.40,5.878
1427.60,5.834
1427.80,5.856
1428.00,5.866
1428.20,5.86
1428.40,5.804
1428.60,5.804
1428.80,5.89
1429.00,5.824
1429.20,5.87
1429.40,5.848
1429.60,5.854
1429.80,5.846
1430.00,5.826
1430.20,5.878
1430.40,5.834
1430.60,5.848
1430.80,5.856
1431.00,5.848
1431.20,5.826
1431.40,5.868
1431.60,5.866
1431.80,5.866
1432.00,5.966
1432.20,5.68
1432.40,5.884
1432.60,5.824
1432.80,5.846
1433.00,5.802
1433.20,5.862
1433.40,5.838
1433.60,5.838
1433.80,5.804
1434.00,5.926
1434.20,5.856
1434.40,5.86
1434.60,5.848
1434.80,5.832
1435.00,5.846
1435.20,5.888
1435.40,5.844
1435.60,5.83
1435.80,5.834
1436.00,5.86
1436.20,5.788
1436.40,5.846
1436.60,5.876
1436.80,5.856
1437.00,5.818
1437.20,5.812
1437.40,5.882
1437.60,5.868
1437.80,5.802
1438.00,5.882
1438.20,5.87
1438.40,5.818
1438.60,5.868
1438.80,5.826
1439.00,5.884
1439.20,5.854
1439.40,5.832
1439.60,5.804
1439.80,5.852
1440.00,5.898
1440.20,5.84
1440.40,5.832
1440.60,5.862
1440.80,5.884
1441.00,5.818
1441.20,5.824
1441.40,5.866
1441.60,5.856
1441.80,5.832
1442.00,5.888
1442.20,5.834
1442.40,5.824
1442.60,5.846
1442.80,5.83
1443.00,5.848
1443.20,5.87
1443.40,5.83
1443.60,5.83
1443.80,5.86
1444.00,5.856
1444.20,5.868
1444.40,5.866
1444.60,5.818
1444.80,5.824
1445.00,5.884
1445.20,5.822
1445.40,5.862
1445.60,5.854
1445.80,5.816
1446.00,5.844
1446.20,5.878
1446.40,5.852
1446.60,5.832
1446.80,5.844
1447.00,5.834
1447.20,5.834
1447.40,5.856
1447.60,5.852
1447.80,5.844
1448.00,5.822
1448.20,5.878
1448.40,5.868
1448.60,5.878
1448.80,5.824
1449.00,5.846
1449.20,5.856
1449.40,5.856
1449.60,5.868
1449.80,5.83
1450.00,5.92
1450.20,5.778
1450.40,5.826
1450.60,5.89
1450.80,5.874
1451.00,5.832
1451.20,5.816
1451.40,5.874
1451.60,5.896
1451.80,5.866
1452.00,5.856
1452.20,5.868
1452.40,5.826
1452.60,5.81
1452.80,5.818
1453.00,5.818
1453.20,5.826
1453.40,5.914
1453.60,5.888
1453.80,5.81
1454.00,5.86
1454.20,5.822
1454.40,5.848
1454.60,5.862
1454.80,5.914
1455.00,5.786
1455.20,5.852
1455.40,5.818
1455.60,5.868
1455.80,5.854
1456.00,5.876
1456.20,5.854
1456.40,5.778
1456.60,5.87
1456.80,5.884
1457.00,5.876
1457.20,5.844
1457.40,5.802
1457.60,5.878
1457.80,5.846
1458.00,5.818
1458.20,5.854
1458.40,5.866
1458.60,5.868
1458.80,5.83
1459.00,5.816
1459.20,5.89
1459.40,5.796
1459.60,5.898
1459.80,5.834
1460.00,5.876
1460.20,5.846
1460.40,5.846
1460.60,5.846
1460.80,5.862
1461.00,5.874
1461.20,5.808
1461.40,5.868
1461.60,5.826
1461.80,5.812
1462.00,5.876
1462.20,5.84
1462.40,5.86
1462.60,5.866
1462.80,5.856
1463.00,5.862
1463.20,5.854
1463.40,5.854
1463.60,5.862
1463.80,5.848
1464.00,5.78
1464.20,5.844
1464.40,5.846
1464.60,5.812
1464.80,5.862
1465.00,5.866
1465.20,5.852
1465.40,5.878
1465.60,5.904
1465.80,5.788
1466.00,5.862
1466.20,5.818
1466.40,5.876
1466.60,5.832
1466.80,5.876
1467.00,5.796
1467.20,5.838
1467.40,5.832
1467.60,5.882
1467.80,5.852
1468.00,5.928
1468.20,5.764
1468.40,5.896
1468.60,5.822
1468.80,5.846
1469.00,5.824
1469.20,5.862
1469.40,5.848
1469.60,5.926
1469.80,5.848
1470.00,5.804
1470.20,5.846
1470.40,5.818
1470.60,5.852
1470.80,5.892
1471.00,5.83
1471.20,5.876
1471.40,5.84
1471.60,5.826
1471.80,5.862
1472.00,5.812
1472.20,5.84
1472.40,5.838
1472.60,5.83
1472.80,5.874
1473.00,5.862
1473.20,5.852
1473.40,5.86
1473.60,5.856
1473.80,5.856
1474.00,5.826
1474.20,5.882
1474.40,5.812
1474.60,5.856
1474.80,5.81
1475.00,5.882
1475.20,5.862
1475.40,5.862
1475.60,5.856
1475.80,5.8
1476.00,5.868
1476.20,5.852
1476.40,5.852
1476.60,5.866
1476.80,5.846
1477.00,5.852
1477.20,5.824
1477.40,5.874
1477.60,5.824
1477.80,5.892
1478.00,5.86
1478.20,5.852
1478.40,5.884
1478.60,5.8
1478.80,5.844
1479.00,5.918
1479.20,5.844
1479.40,5.846
1479.60,5.838
1479.80,5.844
1480.00,5.882
1480.20,5.852
1480.40,5.818
1480.60,5.83
1480.80,5.854
1481.00,5.87
1481.20,5.87
1481.40,5.844
1481.60,5.846
1481.80,5.812
1482.00,5.83
1482.20,5.888
1482.40,5.856
1482.60,5.844
1482.80,5.782
1483.00,5.868
1483.20,5.868
1483.40,5.824
1483.60,5.846
1483.80,5.846
1484.00,5.852
1484.20,5.844
1484.40,5.884
1484.60,5.846
1484.80,5.852
1485.00,5.804
1485.20,5.914
1485.40,5.824
1485.60,5.846
1485.80,5.874
1486.00,5.882
1486.20,5.8
1486.40,5.876
1486.60,5.87
1486.80,5.852
1487.00,5.812
1487.20,5.848
1487.40,5.892
1487.60,5.794
1487.80,5.822
1488.00,5.89
1488.20,5.86
1488.40,5.848
1488.60,5.848
1488.80,5.856
1489.00,5.826
1489.20,5.838
1489.40,5.86
1489.60,5.884
1489.80,5.832
1490.00,5.848
1490.20,5.878
1490.40,5.846
1490.60,5.844
1490.80,5.81
1491.00,5.876
1491.20,5.848
1491.40,5.818
1491.60,5.826
1492.00,5.8
1492.20,5.852
1492.40,5.9
1492.60,5.866
1492.80,5.824
1493.00,5.854
1493.20,5.844
1493.40,5.812
1493.60,5.87
1493.80,5.81
1494.00,5.874
1494.20,5.904
1494.40,5.758
1494.60,5.838
1494.80,5.854
1495.00,5.852
1495.20,5.818
1495.40,5.838
1495.60,5.852
1495.80,5.856
1496.00,5.89
1496.20,5.832
1496.40,5.89
1496.60,5.86
1496.80,5.83
1497.00,5.854
1497.20,5.84
1497.40,5.838
1497.60,5.89
1497.80,5.824
1498.00,5.882
1498.20,5.856
1498.40,5.822
1498.60,5.834
1498.80,5.89
1499.00,5.84
1499.20,5.862
1499.40,5.808
1499.60,5.888
1499.80,5.844
1500.00,5.832
1500.20,5.852
1500.40,5.844
1500.60,5.86
1500.80,5.862
1501.00,5.884
1501.20,5.94
1501.40,5.738
1501.60,5.846
1501.80,5.876
1502.00,5.868
1502.20,5.794
1502.40,5.844
1502.60,5.812
1502.80,5.884
1503.00,5.848
1503.20,5.838
1503.40,5.848
1503.60,5.84
1503.80,5.884
1504.00,5.816
1504.20,5.87
1504.40,5.848
1504.60,5.844
1504.80,5.838
1505.00,5.866
1505.20,5.834
1505.40,5.834
1505.60,5.804
1505.80,5.878
1506.00,5.824
1506.20,5.788
1506.40,5.818
1506.60,5.9
1506.80,5.844
1507.00,5.834
1507.20,5.93
1507.40,5.81
1507.60,5.818
1507.80,5.826
1508.00,5.9
1508.20,5.8
1508.40,5.91
1508.60,5.84
1508.80,5.834
1509.00,5.844
1509.20,5.84
1509.40,5.8
1509.60,5.848
1509.80,5.884
1510.00,5.854
1510.20,5.854
1510.40,5.854
1510.60,5.868
1510.80,5.846
1511.00,5.84
1511.20,5.826
1511.40,5.83
1511.60,5.818
1511.80,5.918
1512.00,5.838
1512.20,5.89
1512.40,5.854
1512.60,5.874
1512.80,5.794
1513.00,5.79
1513.20,5.892
1513.40,5.844
1513.60,5.808
1513.80,5.882
1514.00,5.822
1514.20,5.782
1514.40,5.888
1514.60,5.848
1514.80,5.822
1515.00,5.854
1515.20,5.81
1515.40,5.832
1515.60,5.904
1515.80,5.816
1516.00,5.854
1516.20,5.876
1516.40,5.856
1516.60,5.868
1516.80,5.832
1517.00,5.818
1517.20,5.834
1517.40,5.86
1517.60,5.832
1517.80,5.874
1518.00,5.81
1518.20,5.844
1518.40,5.856
1518.60,5.844
1518.80,5.846
1519.00,5.822
1519.20,5.912
1519.40,5.774
1519.60,5.856
1519.80,5.83
1520.00,5.846
1520.20,5.868
1520.40,5.868
1520.60,5.824
1520.80,5.856
1521.00,5.862
1521.20,5.778
1521.40,5.846
1521.60,5.83
1521.80,5.884
1522.00,5.862
1522.20,5.804
1522.40,5.818
1522.60,5.84
1522.80,5.824
1523.00,5.822
1523.20,5.882
1523.40,5.898
1523.60,5.838
1523.80,5.81
1524.00,5.868
1524.20,5.834
1524.40,5.794
1524.60,5.818
1524.80,5.866
1525.00,5.91
1525.20,5.878
1525.40,5.796
1525.60,5.808
1525.80,5.834
1526.00,5.848
1526.20,5.838
1526.40,5.874
1526.60,5.832
1526.80,5.81
1527.00,5.834
1527.20,5.844
1527.40,5.838
1527.60,5.876
1527.80,5.782
1528.00,5.856
1528.20,5.848
1528.40,5.86
1528.60,5.84
1528.80,5.822
1529.00,5.846
1529.20,5.816
1529.40,5.89
1529.60,5.866
1529.80,5.846
1530.00,5.87
1530.20,5.778
1530.40,5.852
1530.60,5.856
1530.80,5.838
1531.00,5.884
1531.20,5.808
1531.40,5.838
1531.60,5.854
1531.80,5.874
1532.00,5.83
1532.20,5.854
1532.40,5.804
1532.60,5.87
1532.80,5.876
1533.00,5.834
1533.20,5.866
1533.40,5.856
1533.60,5.808
1533.80,5.854
1534.00,5.862
1534.20,5.834
1534.40,5.852
1534.60,5.86
1534.80,5.824
1535.00,5.86
1535.20,5.856
1535.40,5.824
1535.60,5.876
1535.80,5.822
1536.00,5.848
1536.20,5.868
1536.40,5.868
1536.60,5.86
1536.80,5.81
1537.00,5.854
1537.20,5.892
1537.40,5.772
1537.60,5.882
1537.80,5.844
1538.00,5.848
1538.20,5.84
1538.40,5.838
1538.60,5.892
1538.80,5.846
1539.00,5.906
1539.20,5.84
1539.40,5.802
1539.60,5.846
1539.80,5.788
1540.00,5.866
1540.20,5.892
1540.40,5.812
1540.60,5.884
1540.80,5.834
1541.00,5.826
1541.20,5.854
1541.40,5.816
1541.60,5.856
1541.80,5.846
1542.00,5.868
1542.20,5.866
1542.40,5.856
1542.60,5.868
1542.80,5.76
1543.00,5.804
1543.20,5.874
1543.40,5.834
1543.60,5.822
1543.80,5.884
1544.00,5.89
1544.20,5.876
1544.40,5.83
1544.60,5.796
1544.80,5.868
1545.00,5.822
1545.20,5.888
1545.40,5.83
1545.60,5.824
1545.80,5.876
1546.00,5.816
1546.20,5.824
1546.40,5.884
1546.60,5.87
1546.80,5.834
1547.00,5.816
1547.20,5.848
1547.40,5.81
1547.60,5.84
1547.80,5.84
1548.00,5.874
1548.20,5.856
1548.40,5.846
1548.60,5.844
1548.80,5.848
1549.00,5.796
1549.20,5.848
1549.40,5.834
1549.60,5.846
1549.80,5.834
1550.00,5.856
1550.20,5.81
1550.40,5.884
1550.60,5.846
1550.80,5.852
1551.00,5.818
1551.20,5.874
1551.40,5.846
1551.60,5.796
1551.80,5.87
1552.00,5.862
1552.20,5.796
1552.40,5.868
1552.60,5.818
1552.80,5.892
1553.00,5.89
1553.20,5.846
1553.40,5.846
1553.60,5.796
1553.80,5.866
1554.00,5.804
1554.20,5.884
1554.40,5.852
1554.60,5.79
1554.80,5.862
1555.00,5.86
1555.20,5.958
1555.40,5.768
1555.60,5.81
1555.80,5.83
1556.00,5.856
1556.20,5.834
1556.40,5.856
1556.60,5.888
1556.80,5.8
1557.00,5.852
1557.20,5.854
1557.40,5.826
1557.60,5.824
1557.80,5.884
1558.00,5.818
1558.20,5.848
1558.40,5.87
1558.60,5.844
1558.80,5.846
1559.00,5.794
1559.20,5.834
1559.40,5.782
1559.60,5.882
1559.80,5.866
1560.00,5.812
1560.20,5.826
1560.40,5.876
1560.60,5.854
1560.80,5.834
1561.00,5.888
1561.20,5.86
1561.40,5.832
1561.60,5.896
1561.80,5.824
1562.00,5.882
1562.20,5.89
1562.40,5.83
1562.60,5.884
1562.80,5.786
1563.00,5.822
1563.20,5.774
1563.40,5.87
1563.60,5.888
1563.80,5.8
1564.00,5.818
1564.20,5.824
1564.40,5.896
1564.60,5.882
1564.80,5.854
1565.00,5.824
1565.20,5.844
1565.40,5.86
1565.60,5.788
1565.80,5.848
1566.00,5.796
1566.20,5.854
1566.40,5.832
1566.60,5.854
1566.80,5.816
1567.00,5.822
1567.20,5.848
1567.40,5.804
1567.60,5.876
1567.80,5.866
1568.00,5.846
1568.20,5.89
1568.40,5.818
1568.60,5.824
1568.80,5.84
1569.00,5.812
1569.20,5.856
1569.40,5.854
1569.60,5.86
1569.80,5.822
1570.00,5.834
1570.20,5.852
1570.40,5.83
1570.60,5.846
1570.80,5.868
1571.00,5.832
1571.20,5.838
1571.40,5.816
1571.60,5.844
1571.80,5.846
1572.00,5.868
1572.20,5.848
1572.40,5.846
1572.60,5.838
1572.80,5.818
1573.00,5.866
1573.20,5.962
1573.40,5.778
1573.60,5.86
1573.80,5.868
1574.00,5.844
1574.20,5.802
1574.40,5.866
1574.60,5.846
1574.80,5.86
1575.00,5.812
1575.20,5.824
1575.40,5.878
1575.60,5.84
1575.80,5.846
1576.00,5.824
1576.20,5.87
1576.40,5.876
1576.60,5.822
1576.80,5.818
1577.00,5.882
1577.20,5.874
1577.40,5.84
1577.60,5.848
1577.80,5.804
1578.00,5.866
1578.20,5.87
1578.40,5.832
1578.60,5.796
1578.80,5.876
1579.00,5.868
1579.20,5.866
1579.40,5.832
1579.60,5.834
1579.80,5.87
1580.00,5.844
1580.20,5.812
1580.40,5.832
1580.60,5.84
1580.80,5.898
1581.00,5.866
1581.20,5.874
1581.40,5.81
1581.60,5.87
1581.80,5.844
1582.00,5.804
1582.20,5.83
1582.40,5.824
1582.60,5.86
1582.80,5.912
1583.00,5.846
1583.20,5.808
1583.40,5.786
1583.60,5.896
1583.80,5.838
1584.00,5.882
1584.20,5.832
1584.40,5.884
1584.60,5.822
1584.80,5.852
1585.00,5.83
1585.20,5.868
1585.40,5.856
1585.60,5.856
1585.80,5.846
1586.00,5.83
1586.20,5.838
1586.40,5.802
1586.60,5.84
1586.80,5.86
1587.00,5.878
1587.20,5.854
1587.40,5.83
1587.60,5.802
1587.80,5.848
1588.00,5.852
1588.20,5.844
1588.40,5.878
1588.60,5.826
1588.80,5.868
1589.00,5.838
1589.20,5.848
1589.40,5.81
1589.60,5.91
1589.80,5.812
1590.00,5.84
1590.20,5.812
1590.40,5.844
1590.60,5.868
1590.80,5.862
1591.00,5.892
1591.20,5.912
1591.40,5.774
1591.60,5.856
1591.80,5.824
1592.00,5.83
1592.20,5.83
1592.40,5.86
1592.60,5.834
1592.80,5.822
1593.00,5.856
1593.20,5.856
1593.40,5.812
1593.60,5.856
1593.80,5.846
1594.00,5.846
1594.20,5.852
1594.40,5.846
1594.60,5.826
1594.80,5.84
1595.00,5.78
1595.20,5.882
1595.40,5.848
1595.60,5.868
1595.80,5.79
1596.00,5.87
1596.20,5.884
1596.40,5.794
1596.60,5.874
1596.80,5.826
1597.00,5.868
1597.20,5.788
1597.40,5.878
1597.60,5.856
1597.80,5.816
1598.00,5.866
1598.20,5.888
1598.40,5.826
1598.60,5.876
1598.80,5.826
1599.00,5.832
1599.20,5.86
1599.40,5.888
1599.60,5.81
1599.80,5.866
1600.00,5.824
1600.20,5.812
1600.40,5.848
1600.60,5.862
1600.80,5.824
1601.00,5.878
1601.20,5.866
1601.40,5.834
1601.60,5.852
1601.80,5.84
1602.00,5.812
1602.20,5.874
1602.40,5.844
1602.60,5.804
1602.80,5.868
1603.00,5.86
1603.20,5.882
1603.40,5.832
1603.60,5.852
1603.80,5.878
1604.00,5.812
1604.20,5.822
1604.40,5.816
1604.60,5.862
1604.80,5.862
1605.00,5.874
1605.20,5.846
1605.40,5.848
1605.60,5.852
1605.80,5.854
1606.00,5.84
1606.20,5.844
1606.40,5.852
1606.60,5.804
1606.80,5.89
1607.00,5.824
1607.20,5.846
1607.40,5.84
1607.60,5.898
1607.80,5.81
1608.00,5.852
1608.20,5.91
1608.40,5.818
1608.60,5.852
1608.80,5.802
1609.00,5.868
1609.20,5.958
1609.40,5.702
1609.60,5.812
1609.80,5.89
1610.00,5.876
1610.20,5.834
1610.40,5.804
1610.60,5.892
1610.80,5.818
1611.00,5.854
1611.20,5.912
1611.40,5.822
1611.60,5.83
1611.80,5.854
1612.00,5.848
1612.20,5.838
1612.40,5.852
1612.60,5.83
1612.80,5.824
1613.00,5.856
1613.20,5.862
1613.40,5.884
1613.60,5.884
1613.80,5.816
1614.00,5.856
1614.20,5.852
1614.40,5.852
1614.60,5.826
1614.80,5.84
1615.00,5.852
1615.20,5.812
1615.40,5.846
1615.60,5.878
1615.80,5.83
1616.00,5.852
1616.20,5.826
1616.40,5.856
1616.60,5.824
1616.80,5.856
1617.00,5.86
1617.20,5.862
1617.40,5.876
1617.60,5.824
1617.80,5.838
1618.00,5.838
1618.20,5.852
1618.40,5.856
1618.60,5.84
1618.80,5.856
1619.00,5.846
1619.20,5.844
1619.40,5.874
1619.60,5.87
1619.80,5.838
1620.00,5.834
1620.20,5.86
1620.40,5.852
1620.60,5.824
1620.80,5.83
1621.00,5.812
1621.20,5.84
1621.40,5.912
1621.60,5.838
1621.80,5.832
1622.00,5.86
1622.20,5.868
1622.40,5.874
1622.60,5.838
1622.80,5.844
1623.00,5.846
1623.20,5.824
1623.40,5.878
1623.60,5.818
1623.80,5.846
1624.00,5.86
1624.20,5.868
1624.40,5.822
1624.60,5.822
1624.80,5.782
1625.00,5.888
1625.20,5.866
1625.40,5.896
1625.60,5.808
1625.80,5.832
1626.00,5.824
1626.20,5.846
1626.40,5.888
1626.60,5.856
1626.80,5.782
1627.00,5.822
1627.20,5.91
1627.40,5.768
1627.60,5.918
1627.80,5.81
1628.00,5.834
1628.20,5.888
1628.40,5.862
1628.60,5.796
1628.80,5.802
1629.00,5.904
1629.20,5.83
1629.40,5.838
1629.60,5.832
1629.80,5.868
1630.00,5.84
1630.20,5.818
1630.40,5.84
1630.60,5.852
1630.80,5.822
1631.00,5.868
1631.20,5.876
1631.40,5.856
1631.60,5.786
1631.80,5.884
1632.00,5.818
1632.20,5.83
1632.40,5.876
1632.60,5.84
1632.80,5.852
1633.00,5.832
1633.20,5.874
1633.40,5.804
1633.60,5.92
1633.80,5.834
1634.00,5.86
1634.20,5.824
1634.40,5.862
1634.60,5.838
1634.80,5.86
1635.00,5.868
1635.20,5.848
1635.40,5.844
1635.60,5.852
1635.80,5.832
1636.00,5.822
1636.20,5.866
1636.40,5.844
1636.60,5.816
1636.80,5.86
1637.00,5.856
1637.20,5.856
1637.40,5.79
1637.60,5.832
1637.80,5.848
1638.00,5.862
1638.20,5.804
1638.40,5.84
1638.60,5.868
1638.80,5.834
1639.00,5.852
1639.20,5.8
1639.40,5.86
1639.60,5.822
1639.80,5.876
1640.00,5.848
1640.20,5.852
1640.40,5.87
1640.60,5.844
1640.80,5.852
1641.00,5.868
1641.20,5.818
1641.40,5.876
1641.60,5.876
1641.80,5.878
1642.00,5.822
1642.20,5.812
1642.40,5.868
1642.60,5.816
1642.80,5.876
1643.00,5.87
1643.20,5.83
1643.40,5.848
1643.60,5.838
1643.80,5.838
1644.00,5.856
1644.20,5.84
1644.40,5.888
1644.60,5.868
1644.80,5.882
1645.00,5.796
1645.20,5.944
1645.40,5.76
1645.60,5.83
1645.80,5.852
1646.00,5.834
1646.20,5.822
1646.40,5.866
1646.60,5.824
1646.80,5.852
1647.00,5.856
1647.20,5.824
1647.40,5.838
1647.60,5.84
1647.80,5.84
1648.00,5.824
1648.20,5.86
1648.40,5.856
1648.60,5.826
1648.80,5.844
1649.00,5.912
1649.20,5.838
1649.40,5.854
1649.60,5.84
1649.80,5.812
1650.00,5.87
1650.20,5.808
1650.40,5.86
1650.60,5.914
1650.80,5.788
1651.00,5.86
1651.20,5.9
1651.40,5.768
1651.60,5.83
1651.80,5.816
1652.00,5.852
1652.20,5.878
1652.40,5.824
1652.60,5.846
1652.80,5.87
1653.00,5.87
1653.20,5.844
1653.40,5.876
1653.60,5.802
1653.80,5.854
1654.00,5.81
1654.20,5.89
1654.40,5.838
1654.60,5.83
1654.80,5.856
1655.00,5.86
1655.20,5.796
1655.40,5.868
1655.60,5.824
1655.80,5.884
1656.00,5.874
1656.20,5.816
1656.40,5.868
1656.60,5.846
1656.80,5.782
1657.00,5.896
1657.20,5.844
1657.40,5.852
1657.60,5.882
1657.80,5.852
1658.00,5.856
1658.20,5.84
1658.40,5.824
1658.60,5.824
1658.80,5.832
1659.00,5.832
1659.20,5.844
1659.40,5.868
1659.60,5.876
1659.80,5.794
1660.00,5.808
1660.20,5.846
1660.40,5.868
1660.60,5.84
1660.80,5.862
1661.00,5.86
1661.20,5.812
1661.40,5.854
1661.60,5.856
1661.80,5.818
1662.00,5.848
1662.20,5.846
1662.40,5.878
1662.60,5.878
1662.80,5.848
1663.00,5.84
1663.20,5.928
1663.40,5.786
1663.60,5.802
1663.80,5.884
1664.00,5.862
1664.20,5.796
1664.40,5.846
1664.60,5.856
1664.80,5.854
1665.00,5.832
1665.20,5.818
1665.40,5.856
1665.60,5.852
1665.80,5.918
1666.00,5.816
1666.20,5.844
1666.40,5.826
1666.60,5.874
1666.80,5.802
1667.00,5.852
1667.20,5.856
1667.40,5.876
1667.60,5.812
1667.80,5.856
1668.00,5.87
1668.20,5.868
1668.40,5.822
1668.60,5.834
1668.80,5.83
1669.00,5.856
1669.20,5.846
1669.40,5.878
1669.60,5.832
1669.80,5.854
1670.00,5.848
1670.20,5.84
1670.40,5.816
1670.60,5.852
1670.80,5.808
1671.00,5.854
1671.20,5.86
1671.40,5.878
1671.60,5.852
1671.80,5.832
1672.00,5.846
1672.20,5.866
1672.40,5.802
1672.60,5.87
1672.80,5.826
1673.00,5.86
1673.20,5.826
1673.40,5.834
1673.60,5.8
1673.80,5.856
1674.00,5.852
1674.20,5.854
1674.40,5.844
1674.60,5.856
1674.80,5.834
1675.00,5.838
1675.20,5.848
1675.40,5.844
1675.60,5.838
1675.80,5.83
1676.00,5.802
1676.20,5.824
1676.40,5.87
1676.60,5.874
1676.80,5.86
1677.00,5.848
1677.20,5.818
1677.40,5.854
1677.60,5.898
1677.80,5.812
1678.00,5.832
1678.20,5.86
1678.40,5.834
1678.60,5.896
1678.80,5.834
1679.00,5.878
1679.20,5.772
1679.40,5.812
1679.60,5.848
1679.80,5.854
1680.00,5.818
1680.20,5.874
1680.40,5.868
1680.60,5.856
1680.80,5.844
1681.00,5.8
1681.20,5.94
1681.40,5.76
1681.60,5.868
1681.80,5.856
1682.00,5.774
1682.20,5.856
1682.40,5.86
1682.60,5.834
1682.80,5.856
1683.00,5.824
1683.20,5.852
1683.40,5.83
1683.60,5.846
1683.80,5.89
1684.00,5.834
1684.20,5.882
1684.40,5.878
1684.60,5.874
1684.80,5.794
1685.00,5.822
1685.20,5.866
1685.40,5.856
1685.60,5.818
1685.80,5.856
1686.00,5.818
1686.20,5.846
1686.40,5.818
1686.60,5.834
1686.80,5.844
1687.00,5.9
1687.20,5.832
1687.40,5.812
1687.60,5.896
1687.80,5.808
1688.00,5.866
1688.20,5.878
1688.40,5.824
1688.60,5.86
1688.80,5.838
1689.00,5.832
1689.20,5.826
1689.40,5.866
1689.60,5.826
1689.80,5.866
1690.00,5.826
1690.20,5.844
1690.40,5.848
1690.60,5.81
1690.80,5.922
1691.00,5.832
1691.20,5.86
1691.40,5.81
1691.60,5.884
1691.80,5.846
1692.00,5.834
1692.20,5.834
1692.40,5.878
1692.60,5.764
1692.80,5.868
1693.00,5.812
1693.20,5.826
1693.40,5.852
1693.60,5.854
1693.80,5.826
1694.00,5.8
1694.20,5.856
1694.40,5.852
1694.60,5.876
1694.80,5.856
1695.00,5.826
1695.20,5.834
1695.40,5.824
1695.60,5.862
1695.80,5.852
1696.00,5.84
1696.20,5.848
1696.40,5.846
1696.60,5.868
1696.80,5.882
1697.00,5.856
1697.20,5.83
1697.40,5.81
1697.60,5.838
1697.80,5.852
1698.00,5.812
1698.20,5.866
1698.40,5.83
1698.60,5.838
1698.80,5.86
1699.00,5.844
1699.20,5.89
1699.40,5.772
1699.60,5.832
1699.80,5.86
1700.00,5.876
1700.20,5.808
1700.40,5.878
1700.60,5.854
1700.80,5.838
1701.00,5.868
1701.20,5.862
1701.40,5.83
1701.60,5.862
1701.80,5.87
1702.00,5.802
1702.20,5.87
1702.40,5.844
1702.60,5.81
1702.80,5.92
1703.00,5.84
1703.20,5.832
1703.40,5.834
1703.60,5.824
1703.80,5.824
1704.00,5.856
1704.20,5.848
1704.40,5.874
1704.60,5.818
1704.80,5.846
1705.00,5.856
1705.20,5.868
1705.40,5.876
1705.60,5.81
1705.80,5.786
1706.00,5.846
1706.20,5.89
1706.40,5.804
1706.60,5.86
1706.80,5.834
1707.00,5.876
1707.20,5.824
1707.40,5.848
1707.60,5.874
1707.80,5.89
1708.00,5.838
1708.20,5.794
1708.40,5.824
1708.60,5.824
1708.80,5.868
1709.00,5.812
1709.20,5.834
1709.40,5.818
1709.60,5.854
1709.80,5.876
1710.00,5.816
1710.20,5.866
1710.40,5.824
1710.60,5.838
1710.80,5.878
1711.00,5.838
1711.20,5.838
1711.40,5.838
1711.60,5.838
1711.80,5.846
1712.00,5.824
1712.20,5.84
1712.40,5.856
1712.60,5.834
1712.80,5.866
1713.00,5.802
1713.20,5.832
1713.40,5.866
1713.60,5.802
1713.80,5.868
1714.00,5.838
1714.20,5.824
1714.40,5.852
1714.60,5.86
1714.80,5.838
1715.00,5.888
1715.20,5.854
1715.40,5.816
1715.60,5.884
1715.80,5.824
1716.00,5.832
1716.20,5.856
1716.40,5.812
1716.60,5.83
1716.80,5.832
1717.00,5.84
1717.20,5.93
1717.40,5.72
1717.60,5.826
1717.80,5.824
1718.00,5.856
1718.20,5.898
1718.40,5.876
1718.60,5.788
1718.80,5.804
1719.00,5.912
1719.20,5.86
1719.40,5.826
1719.60,5.8
1719.80,5.856
1720.00,5.794
1720.20,5.838
1720.40,5.788
1720.60,5.86
1720.80,5.878
1721.00,5.862
1721.20,5.816
1721.40,5.826
1721.60,5.898
1721.80,5.832
1722.00,5.868
1722.20,5.84
1722.40,5.852
1722.60,5.812
1722.80,5.852
1723.00,5.838
1723.20,5.802
1723.40,5.862
1723.60,5.862
1723.80,5.804
1724.00,5.9
1724.20,5.84
1724.40,5.83
1724.60,5.826
1724.80,5.856
1725.00,5.834
1725.20,5.834
1725.40,5.854
1725.60,5.802
1725.80,5.856
1726.00,5.844
1726.20,5.844
1726.40,5.824
1726.60,5.86
1726.80,5.834
1727.00,5.812
1727.20,5.844
1727.40,5.846
1727.60,5.87
1727.80,5.818
1728.00,5.834
1728.20,5.912
1728.40,5.808
1728.60,5.876
1728.80,5.788
1729.00,5.84
1729.20,5.846
1729.40,5.844
1729.60,5.912
1729.80,5.86
1730.00,5.834
1730.20,5.884
1730.40,5.822
1730.60,5.854
1730.80,5.826
1731.00,5.846
1731.20,5.824
1731.40,5.846
1731.60,5.846
1731.80,5.86
1732.00,5.824
1732.20,5.832
1732.40,5.844
1732.60,5.888
1732.80,5.844
1733.00,5.832
1733.20,5.818
1733.40,5.824
1733.60,5.874
1733.80,5.834
1734.00,5.78
1734.20,5.888
1734.40,5.866
1734.60,5.852
1734.80,5.824
1735.00,5.888
1735.20,5.928
1735.40,5.722
1735.60,5.848
1735.80,5.876
1736.00,5.796
1736.20,5.868
1736.40,5.794
1736.60,5.866
1736.80,5.856
1737.00,5.868
1737.20,5.846
1737.40,5.884
1737.60,5.84
1737.80,5.83
1738.00,5.9
1738.20,5.796
1738.40,5.84
1738.60,5.846
1738.80,5.854
1739.00,5.824
1739.20,5.844
1739.40,5.876
1739.60,5.87
1739.80,5.846
1740.00,5.852
1740.20,5.834
1740.40,5.826
1740.60,5.844
1740.80,5.826
1741.00,5.888
1741.20,5.832
1741.40,5.834
1741.60,5.802
1741.80,5.87
1742.00,5.86
1742.20,5.824
1742.40,5.912
1742.60,5.788
1742.80,5.87
1743.00,5.83
1743.20,5.824
1743.40,5.822
1743.60,5.888
1743.80,5.844
1744.00,5.83
1744.20,5.854
1744.40,5.84
1744.60,5.84
1744.80,5.888
1745.00,5.796
1745.20,5.824
1745.40,5.866
1745.60,5.844
1745.80,5.868
1746.00,5.882
1746.20,5.832
1746.40,5.824
1746.60,5.856
1746.80,5.862
1747.00,5.846
1747.20,5.848
1747.40,5.812
1747.60,5.87
1747.80,5.838
1748.00,5.822
1748.20,5.818
1748.40,5.882
1748.60,5.832
1748.80,5.86
1749.00,5.846
1749.20,5.846
1749.40,5.8
1749.60,5.848
1749.80,5.84
1750.00,5.866
1750.20,5.812
1750.40,5.832
1750.60,5.876
1750.80,5.892
1751.00,5.848
1751.20,5.818
1751.40,5.868
1751.60,5.824
1751.80,5.824
1752.00,5.888
1752.20,5.79
1752.40,5.824
1752.60,5.852
1752.80,5.862
1753.00,5.888
1753.20,5.962
1753.40,5.752
1753.60,5.824
1753.80,5.848
1754.00,5.84
1754.20,5.856
1754.40,5.848
1754.60,5.79
1754.80,5.896
1755.00,5.84
1755.20,5.788
1755.40,5.86
1755.60,5.87
1755.80,5.826
1756.00,5.846
1756.20,5.834
1756.40,5.856
1756.60,5.824
1756.80,5.844
1757.00,5.852
1757.20,5.848
1757.40,5.816
1757.60,5.83
1757.80,5.86
1758.00,5.832
1758.20,5.848
1758.40,5.866
1758.60,5.868
1758.80,5.808
1759.00,5.818
1759.20,5.824
1759.40,5.868
1759.60,5.884
1759.80,5.846
1760.00,5.848
1760.20,5.852
1760.40,5.84
1760.60,5.856
1760.80,5.802
1761.00,5.926
1761.20,5.876
1761.40,5.824
1761.60,5.844
1761.80,5.824
1762.00,5.808
1762.20,5.866
1762.40,5.786
1762.60,5.856
1762.80,5.86
1763.00,5.848
1763.20,5.876
1763.40,5.824
1763.60,5.84
1763.80,5.822
1764.00,5.83
1764.20,5.838
1764.40,5.844
1764.60,5.844
1764.80,5.904
1765.00,5.848
1765.20,5.838
1765.40,5.818
1765.60,5.812
1765.80,5.854
1766.00,5.816
1766.20,5.854
1766.40,5.852
1766.60,5.854
1766.80,5.816
1767.00,5.852
1767.20,5.83
1767.40,5.854
1767.60,5.912
1767.80,5.854
1768.00,5.816
1768.20,5.862
1768.40,5.848
1768.60,5.816
1768.80,5.812
1769.00,5.874
1769.20,5.794
1769.40,5.868
1769.60,5.804
1769.80,5.8
1770.00,5.884
1770.20,5.874
1770.40,5.796
1770.60,5.852
1770.80,5.834
1771.00,5.87
1771.20,5.914
1771.40,5.768
1771.60,5.868
1771.80,5.884
1772.00,5.822
1772.20,5.822
1772.40,5.844
1772.60,5.84
1772.80,5.874
1773.00,5.868
1773.20,5.84
1773.40,5.84
1773.60,5.846
1773.80,5.854
1774.00,5.804
1774.20,5.876
1774.40,5.846
1774.60,5.846
1774.80,5.81
1775.00,5.796
1775.20,5.882
1775.40,5.856
1775.60,5.824
1775.80,5.854
1776.00,5.818
1776.20,5.838
1776.40,5.826
1776.60,5.862
1776.80,5.862
1777.00,5.866
1777.20,5.822
1777.40,5.846
1777.60,5.854
1777.80,5.834
1778.00,5.83
1778.20,5.896
1778.40,5.87
1778.60,5.86
1778.80,5.87
1779.00,5.856
1779.20,5.796
1779.40,5.812
1779.60,5.852
1779.80,5.83
1780.00,5.878
1780.20,5.824
1780.40,5.868
1780.60,5.846
1780.80,5.86
1781.00,5.782
1781.20,5.824
1781.40,5.878
1781.60,5.856
1781.80,5.84
1782.00,5.838
1782.20,5.83
1782.40,5.884
1782.60,5.846
1782.80,5.9
1783.00,5.794
1783.20,5.856
1783.40,5.92
1783.60,5.824
1783.80,5.83
1784.00,5.91
1784.20,5.812
1784.40,5.834
1784.60,5.852
1784.80,5.832
1785.00,5.854
1785.20,5.848
1785.40,5.866
1785.60,5.844
1785.80,5.846
1786.00,5.856
1786.20,5.782
1786.40,5.848
1786.60,5.844
1786.80,5.89
1787.00,5.794
1787.20,5.868
1787.40,5.868
1787.60,5.86
1787.80,5.854
1788.00,5.812
1788.20,5.84
1788.40,5.852
1788.60,5.846
1788.80,5.846
1789.00,5.812
1789.20,5.92
1789.40,5.744
1789.60,5.86
1789.80,5.878
1790.00,5.83
1790.20,5.84
1790.40,5.846
1790.60,5.846
1790.80,5.848
1791.00,5.904
1791.20,5.834
1791.40,5.834
1791.60,5.832
1791.80,5.834
1792.20,5.854
1792.40,5.86
1792.60,5.822
1792.80,5.826
1793.00,5.824
1793.20,5.874
1793.40,5.844
1793.60,5.83
1793.80,5.824
1794.00,5.892
1794.20,5.866
1794.40,5.856
1794.60,5.862
1794.80,5.852
1795.00,5.856
1795.20,5.812
1795.40,5.86
1795.60,5.888
1795.80,5.774
1796.00,5.856
1796.20,5.838
1796.40,5.856
1796.60,5.892
1796.80,5.81
1797.00,5.844
1797.20,5.892
1797.40,5.79
1797.60,5.856
1797.80,5.87
1798.00,5.846
1798.20,5.862
1798.40,5.812
1798.60,5.876
1798.80,5.804
1799.00,5.848
1799.20,5.856
1799.40,5.838
1799.60,5.852
1799.80,5.862
1800.00,5.822
1800.20,5.87
1800.40,5.904
1800.60,5.866
1800.80,5.772
1801.00,5.854
1801.20,5.8
1801.40,5.876
1801.60,5.854
1801.80,5.86
1802.00,5.856
1802.20,5.832
1802.40,5.83
1802.60,5.862
1802.80,5.852
1803.00,5.79
1803.20,5.834
1803.40,5.848
1803.60,5.87
1803.80,5.852
1804.00,5.824
1804.20,5.868
1804.40,5.926
1804.60,5.78
1804.80,5.844
1805.00,5.812
1805.20,5.866
1805.40,5.862
1805.60,5.866
1805.80,5.822
1806.00,5.818
1806.20,5.856
1806.40,5.844
1806.60,5.834
1806.80,5.874
1807.00,5.84
1807.20,5.794
1807.40,5.856
1807.60,5.846
1807.80,5.846
1808.00,5.86
1808.20,5.812
1808.40,5.834
1808.60,5.87
1808.80,5.834
1809.00,5.878
1809.20,5.856
1809.40,5.824
1809.60,5.832
1809.80,5.854
1810.00,5.868
1810.20,5.824
1810.40,5.834
1810.60,5.812
1810.80,5.866
1811.00,5.862
1811.20,5.882
1811.40,5.822
1811.60,5.852
1811.80,5.804
1812.00,5.84
1812.20,5.888
1812.40,5.796
1812.60,5.878
1812.80,5.844
1813.00,5.838
1813.20,5.844
1813.40,5.856
1813.60,5.834
1813.80,5.856
1814.00,5.832
1814.20,5.846
1814.40,5.838
1814.60,5.906
1814.80,5.802
1815.00,5.822
1815.20,5.87
1815.40,5.866
1815.60,5.834
1815.80,5.83
1816.00,5.848
1816.20,5.898
1816.40,5.86
1816.60,5.844
1816.80,5.86
1817.00,5.79
1817.20,5.838
1817.40,5.866
1817.60,5.888
1817.80,5.846
1818.00,5.882
1818.20,5.804
1818.40,5.816
1818.60,5.848
1818.80,5.804
1819.00,5.904
1819.20,5.854
1819.40,5.844
1819.60,5.824
1819.80,5.832
1820.00,5.802
1820.20,5.9
1820.40,5.874
1820.60,5.766
1820.80,5.878
1821.00,5.9
1821.20,5.824
1821.40,5.846
1821.60,5.866
1821.80,5.818
1822.00,5.822
1822.20,5.818
1822.40,5.956
1822.60,5.76
1822.80,5.802
1823.00,5.856
1823.20,5.9
1823.40,5.854
1823.60,5.868
1823.80,5.86
1824.00,5.812
1824.20,5.834
1824.40,5.832
1824.60,5.832
1824.80,5.83
1825.00,5.83
1825.20,5.882
1825.40,5.824
1825.60,5.832
1825.80,5.846
1826.00,5.826
1826.20,5.91
1826.40,5.838
1826.60,5.826
1826.80,5.822
1827.00,5.838
1827.20,5.826
1827.40,5.898
1827.60,5.846
1827.80,5.818
1828.00,5.86
1828.20,5.804
1828.40,5.89
1828.60,5.83
1828.80,5.84
1829.00,5.838
1829.20,5.874
1829.40,5.848
1829.60,5.846
1829.80,5.816
1830.00,5.92
1830.20,5.84
1830.40,5.804
1830.60,5.848
1830.80,5.87
1831.00,5.87
1831.20,5.81
1831.40,5.844
1831.60,5.796
1831.80,5.834
1832.00,5.89
1832.20,5.852
1832.40,5.848
1832.60,5.844
1832.80,5.854
1833.00,5.832
1833.20,5.822
1833.40,5.856
1833.60,5.838
1833.80,5.86
1834.00,5.87
1834.20,5.832
1834.40,5.878
1834.60,5.856
1834.80,5.856
1835.00,5.844
1835.20,5.804
1835.40,5.846
1835.60,5.848
1835.80,5.794
1836.00,5.84
1836.20,5.848
1836.40,5.788
1836.60,5.84
1836.80,5.868
1837.00,5.9
1837.20,5.888
1837.40,5.834
1837.60,5.81
1837.80,5.848
1838.00,5.86
1838.20,5.834
1838.40,5.824
1838.60,5.852
1838.80,5.87
1839.00,5.788
1839.20,5.868
1839.40,5.844
1839.60,5.8
1839.80,5.876
1840.00,5.804
1840.20,5.862
1840.40,5.892
1840.60,5.746
1840.80,5.854
1841.00,5.824
1841.20,5.89
1841.40,5.866
1841.60,5.854
1841.80,5.848
1842.00,5.83
1842.20,5.866
1842.40,5.81
1842.60,5.818
1842.80,5.838
1843.00,5.87
1843.20,5.802
1843.40,5.86
1843.60,5.9
1843.80,5.832
1844.00,5.876
1844.20,5.832
1844.40,5.816
1844.60,5.884
1844.80,5.786
1845.00,5.904
1845.20,5.874
1845.40,5.83
1845.60,5.848
1845.80,5.824
1846.00,5.824
1846.20,5.852
1846.40,5.83
1846.60,5.838
1846.80,5.878
1847.00,5.824
1847.20,5.838
1847.40,5.876
1847.60,5.812
1847.80,5.852
1848.00,5.826
1848.20,5.812
1848.40,5.804
1848.60,5.856
1848.80,5.868
1849.00,5.834
1849.20,5.808
1849.40,5.86
1849.60,5.83
1849.80,5.878
1850.00,5.866
1850.20,5.856
1850.40,5.862
1850.60,5.802
1850.80,5.854
1851.00,5.888
1851.20,5.824
1851.40,5.832
1851.60,5.876
1851.80,5.84
1852.00,5.838
1852.20,5.854
1852.40,5.832
1852.60,5.87
1852.80,5.86
1853.00,5.812
1853.20,5.852
1853.40,5.834
1853.60,5.846
1853.80,5.812
1854.00,5.86
1854.20,5.878
1854.40,5.848
1854.60,5.826
1854.80,5.826
1855.00,5.818
1855.20,5.832
1855.40,5.856
1855.60,5.838
1855.80,5.854
1856.00,5.834
1856.20,5.9
1856.40,5.834
1856.60,5.862
1856.80,5.8
1857.00,5.878
1857.20,5.892
1857.40,5.844
1857.60,5.818
1857.80,5.78
1858.00,5.882
1858.20,5.818
1858.40,5.986
1858.60,5.774
1858.80,5.79
1859.00,5.854
1859.20,5.876
1859.40,5.838
1859.60,5.826
1859.80,5.856
1860.00,5.822
1860.20,5.846
1860.40,5.862
1860.60,5.824
1860.80,5.866
1861.00,5.81
1861.20,5.852
1861.40,5.888
1861.60,5.856
1861.80,5.818
1862.00,5.838
1862.20,5.862
1862.40,5.826
1862.60,5.888
1862.80,5.87
1863.00,5.78
1863.20,5.856
1863.40,5.888
1863.60,5.854
1863.80,5.86
1864.00,5.834
1864.20,5.84
1864.40,5.808
1864.60,5.826
1864.80,5.838
1865.00,5.852
1865.20,5.848
1865.40,5.824
1865.60,5.862
1865.80,5.834
1866.00,5.896
1866.20,5.852
1866.40,5.86
1866.60,5.854
1866.80,5.822
1867.00,5.866
1867.20,5.848
1867.40,5.83
1867.60,5.83
1867.80,5.834
1868.00,5.86
1868.20,5.822
1868.40,5.856
1868.60,5.824
1868.80,5.846
1869.00,5.768
1869.20,5.874
1869.40,5.834
1869.60,5.826
1869.80,5.812
1870.00,5.826
1870.20,5.852
1870.40,5.862
1870.60,5.846
1870.80,5.834
1871.00,5.826
1871.20,5.816
1871.40,5.854
1871.60,5.846
1871.80,5.888
1872.00,5.832
1872.20,5.86
1872.40,5.856
1872.60,5.838
1872.80,5.81
1873.00,5.854
1873.20,5.854
1873.40,5.79
1873.60,5.854
1873.80,5.83
1874.00,5.87
1874.20,5.854
1874.40,5.854
1874.60,5.868
1874.80,5.86
1875.00,5.86
1875.20,5.824
1875.40,5.81
1875.60,5.826
1875.80,5.86
1876.00,5.868
1876.20,5.854
1876.40,5.956
1876.60,5.702
1876.80,5.822
1877.00,5.896
1877.20,5.846
1877.40,5.888
1877.60,5.78
1877.80,5.812
1878.00,5.898
1878.20,5.856
1878.40,5.84
1878.60,5.89
1878.80,5.846
1879.00,5.862
1879.20,5.796
1879.40,5.826
1879.60,5.882
1879.80,5.888
1880.00,5.854
1880.20,5.84
1880.40,5.822
1880.60,5.808
1880.80,5.844
1881.00,5.846
1881.20,5.862
1881.40,5.91
1881.60,5.834
1881.80,5.824
1882.00,5.876
1882.20,5.846
1882.40,5.846
1882.60,5.84
1882.80,5.822
1883.00,5.852
1883.20,5.834
1883.40,5.852
1883.60,5.802
1883.80,5.862
1884.00,5.868
1884.20,5.862
1884.40,5.8
1884.60,5.884
1884.80,5.87
1885.00,5.808
1885.20,5.882
1885.40,5.856
1885.60,5.86
1885.80,5.816
1886.00,5.824
1886.20,5.78
1886.40,5.876
1886.60,5.818
1886.80,5.838
1887.00,5.812
1887.20,5.856
1887.40,5.884
1887.60,5.816
1887.80,5.832
1888.00,5.888
1888.20,5.846
1888.40,5.866
1888.60,5.852
1888.80,5.826
1889.00,5.838
1889.20,5.834
1889.40,5.786
1889.60,5.904
1889.80,5.83
1890.00,5.846
1890.20,5.89
1890.40,5.862
1890.60,5.808
1890.80,5.868
1891.00,5.84
1891.20,5.804
1891.40,5.838
1891.60,5.876
1891.80,5.846
1892.00,5.848
1892.20,5.846
1892.40,5.822
1892.60,5.83
1892.80,5.848
1893.00,5.852
1893.20,5.846
1893.40,5.862
1893.60,5.852
1893.80,5.778
1894.00,5.856
1894.20,5.816
1894.40,5.966
1894.60,5.758
1894.80,5.824
1895.00,5.876
1895.20,5.876
1895.40,5.854
1895.60,5.812
1895.80,5.852
1896.00,5.852
1896.20,5.844
1896.40,5.876
1896.60,5.79
1896.80,5.818
1897.00,5.852
1897.20,5.866
1897.40,5.866
1897.60,5.834
1897.80,5.87
1898.00,5.866
1898.20,5.866
1898.40,5.834
1898.60,5.822
1898.80,5.816
1899.00,5.868
1899.20,5.848
1899.40,5.862
1899.60,5.89
1899.80,5.834
1900.00,5.888
1900.20,5.818
1900.40,5.87
1900.60,5.826
1900.80,5.884
1901.00,5.834
1901.20,5.818
1901.40,5.794
1901.60,5.848
1901.80,5.874
1902.00,5.816
1902.20,5.838
1902.40,5.874
1902.60,5.866
1902.80,5.83
1903.00,5.818
1903.20,5.818
1903.40,5.844
1903.60,5.832
1903.80,5.81
1904.00,5.9
1904.20,5.83
1904.40,5.824
1904.60,5.81
1904.80,5.898
1905.00,5.86
1905.20,5.838
1905.40,5.824
1905.60,5.838
1905.80,5.824
1906.00,5.856
1906.20,5.834
1906.40,5.874
1906.60,5.844
1906.80,5.87
1907.00,5.846
1907.20,5.802
1907.40,5.896
1907.60,5.848
1907.80,5.83
1908.00,5.854
1908.20,5.824
1908.40,5.86
1908.60,5.788
1908.80,5.84
1909.00,5.824
1909.20,5.826
1909.40,5.84
1909.60,5.854
1909.80,5.856
1910.00,5.832
1910.20,5.892
1910.40,5.84
1910.60,5.832
1910.80,5.868
1911.00,5.81
1911.20,5.87
1911.40,5.868
1911.60,5.844
1911.80,5.824
1912.00,5.856
1912.20,5.852
1912.40,5.942
1912.60,5.788
1912.80,5.822
1913.00,5.854
1913.20,5.808
1913.40,5.848
1913.60,5.818
1913.80,5.84
1914.00,5.856
1914.20,5.824
1914.40,5.852
1914.60,5.87
1914.80,5.87
1915.00,5.856
1915.20,5.826
1915.40,5.844
1915.60,5.802
1915.80,5.848
1916.00,5.838
1916.20,5.854
1916.40,5.832
1916.60,5.862
1916.80,5.826
1917.00,5.89
1917.20,5.824
1917.40,5.826
1917.60,5.852
1917.80,5.884
1918.00,5.86
1918.20,5.852
1918.40,5.838
1918.60,5.876
1918.80,5.838
1919.00,5.834
1919.20,5.866
1919.40,5.812
1919.60,5.824
1919.80,5.826
1920.00,5.834
1920.20,5.868
1920.40,5.87
1920.60,5.804
1920.80,5.844
1921.00,5.84
1921.20,5.874
1921.40,5.838
1921.60,5.84
1921.80,5.86
1922.00,5.876
1922.20,5.852
1922.40,5.746
1922.60,5.89
1922.80,5.866
1923.00,5.812
1923.20,5.84
1923.40,5.868
1923.60,5.846
1923.80,5.844
1924.00,5.862
1924.20,5.838
1924.40,5.862
1924.60,5.854
1924.80,5.812
1925.00,5.854
1925.20,5.856
1925.40,5.838
1925.60,5.832
1925.80,5.852
1926.00,5.838
1926.20,5.868
1926.40,5.808
1926.60,5.87
1926.80,5.824
1927.00,5.856
1927.20,5.834
1927.40,5.868
1927.60,5.816
1927.80,5.838
1928.00,5.89
1928.20,5.852
1928.40,5.84
1928.60,5.888
1928.80,5.818
1929.00,5.862
1929.20,5.826
1929.40,5.862
1929.60,5.86
1929.80,5.896
1930.00,5.844
1930.20,5.84
1930.40,5.906
1930.60,5.768
1930.80,5.824
1931.00,5.826
1931.20,5.854
1931.40,5.854
1931.60,5.816
1931.80,5.852
1932.00,5.834
1932.20,5.794
1932.40,5.918
1932.60,5.84
1932.80,5.832
1933.00,5.892
1933.20,5.848
1933.40,5.808
1933.60,5.854
1933.80,5.854
1934.00,5.86
1934.20,5.874
1934.40,5.824
1934.60,5.812
1934.80,5.834
1935.00,5.866
1935.20,5.808
1935.40,5.826
1935.60,5.86
1935.80,5.852
1936.00,5.866
1936.20,5.868
1936.40,5.868
1936.60,5.808
1936.80,5.854
1937.00,5.826
1937.20,5.856
1937.40,5.9
1937.60,5.818
1937.80,5.876
1938.00,5.808
1938.20,5.852
1938.40,5.846
1938.60,5.822
1938.80,5.874
1939.00,5.866
1939.20,5.808
1939.40,5.876
1939.60,5.852
1939.80,5.84
1940.00,5.846
1940.20,5.846
1940.40,5.826
1940.60,5.878
1940.80,5.848
1941.00,5.826
1941.20,5.848
1941.40,5.824
1941.60,5.838
1941.80,5.832
1942.00,5.834
1942.20,5.844
1942.40,5.84
1942.60,5.868
1942.80,5.794
1943.00,5.834
1943.20,5.834
1943.40,5.848
1943.60,5.834
1943.80,5.914
1944.00,5.79
1944.20,5.81
1944.40,5.838
1944.60,5.862
1944.80,5.818
1945.00,5.874
1945.20,5.862
1945.40,5.824
1945.60,5.898
1945.80,5.84
1946.00,5.818
1946.20,5.824
1946.40,5.83
1946.60,5.848
1946.80,5.856
1947.00,5.83
1947.20,5.818
1947.40,5.9
1947.60,5.78
1947.80,5.824
1948.00,5.87
1948.20,5.86
1948.40,5.94
1948.60,5.782
1948.80,5.832
1949.00,5.844
1949.20,5.824
1949.40,5.83
1949.60,5.824
1949.80,5.818
1950.00,5.856
1950.20,5.878
1950.40,5.892
1950.60,5.774
1950.80,5.86
1951.00,5.818
1951.20,5.848
1951.40,5.8
1951.60,5.866
1951.80,5.81
1952.00,5.866
1952.20,5.87
1952.40,5.832
1952.60,5.884
1952.80,5.834
1953.00,5.804
1953.20,5.802
1953.40,5.884
1953.60,5.848
1953.80,5.824
1954.00,5.848
1954.20,5.826
1954.40,5.876
1954.60,5.838
1954.80,5.844
1955.00,5.822
1955.20,5.9
1955.40,5.832
1955.60,5.816
1955.80,5.854
1956.00,5.862
1956.20,5.866
1956.40,5.852
1956.60,5.832
1956.80,5.854
1957.00,5.846
1957.20,5.812
1957.40,5.826
1957.60,5.812
1957.80,5.844
1958.00,5.906
1958.20,5.802
1958.40,5.874
1958.60,5.834
1958.80,5.8
1959.00,5.804
1959.20,5.846
1959.40,5.826
1959.60,5.862
1959.80,5.856
1960.00,5.802
1960.20,5.876
1960.40,5.86
1960.60,5.878
1960.80,5.868
1961.00,5.81
1961.20,5.83
1961.40,5.86
1961.60,5.826
1961.80,5.882
1962.00,5.848
1962.20,5.876
1962.40,5.816
1962.60,5.848
1962.80,5.818
1963.00,5.826
1963.20,5.866
1963.40,5.832
1963.60,5.848
1963.80,5.874
1964.00,5.83
1964.20,5.824
1964.40,5.824
1964.60,5.834
1964.80,5.824
1965.00,5.882
1965.20,5.838
1965.40,5.862
1965.60,5.854
1965.80,5.808
1966.00,5.874
1966.20,5.848
1966.40,5.94
1966.60,5.802
1966.80,5.892
1967.00,5.802
1967.20,5.844
1967.40,5.824
1967.60,5.822
1967.80,5.854
1968.00,5.838
1968.20,5.824
1968.40,5.868
1968.60,5.83
1968.80,5.84
1969.00,5.86
1969.20,5.86
1969.40,5.824
1969.60,5.818
1969.80,5.876
1970.00,5.856
1970.20,5.826
1970.40,5.826
1970.60,5.856
1970.80,5.812
1971.00,5.866
1971.20,5.888
1971.40,5.804
1971.60,5.856
1971.80,5.856
1972.00,5.854
1972.20,5.852
1972.40,5.812
1972.60,5.884
1972.80,5.876
1973.00,5.788
1973.20,5.834
1973.40,5.79
1973.60,5.844
1973.80,5.866
1974.00,5.904
1974.20,5.816
1974.40,5.87
1974.60,5.854
1974.80,5.834
1975.00,5.866
1975.20,5.808
1975.40,5.816
1975.60,5.824
1975.80,5.862
1976.00,5.83
1976.20,5.852
1976.40,5.854
1976.60,5.812
1976.80,5.846
1977.00,5.882
1977.20,5.838
1977.40,5.852
1977.60,5.75
1977.80,5.84
1978.00,5.892
1978.20,5.81
1978.40,5.874
1978.60,5.862
1978.80,5.868
1979.00,5.862
1979.20,5.852
1979.40,5.818
1979.60,5.866
1979.80,5.846
1980.00,5.824
1980.20,5.876
1980.40,5.8
1980.60,5.804
1980.80,5.852
1981.00,5.818
1981.20,5.846
1981.40,5.848
1981.60,5.878
1981.80,5.838
1982.00,5.862
1982.20,5.86
1982.40,5.796
1982.60,5.876
1982.80,5.818
1983.00,5.818
1983.20,5.874
1983.40,5.8
1983.60,5.822
1983.80,5.896
1984.00,5.89
1984.20,5.846
1984.40,5.918
1984.60,5.766
1984.80,5.876
1985.00,5.89
1985.20,5.816
1985.40,5.838
1985.60,5.874
1985.80,5.818
1986.00,5.878
1986.20,5.882
1986.40,5.862
1986.60,5.844
1986.80,5.83
1987.00,5.89
1987.20,5.778
1987.40,5.882
1987.60,5.87
1987.80,5.848
1988.00,5.816
1988.20,5.818
1988.40,5.866
1988.60,5.802
1988.80,5.892
1989.00,5.852
1989.20,5.862
1989.40,5.838
1989.60,5.866
1989.80,5.832
1990.00,5.808
1990.20,5.824
1990.40,5.856
1990.60,5.862
1990.80,5.868
1991.00,5.866
1991.20,5.844
1991.40,5.838
1991.60,5.816
1991.80,5.812
1992.00,5.852
1992.20,5.83
1992.40,5.79
1992.60,5.826
1992.80,5.856
1993.00,5.832
1993.20,5.846
1993.40,5.87
1993.60,5.818
1993.80,5.854
1994.00,5.832
1994.20,5.818
1994.40,5.846
1994.60,5.874
1994.80,5.83
1995.00,5.81
1995.20,5.866
1995.40,5.874
1995.60,5.846
1995.80,5.83
1996.00,5.862
1996.20,5.856
1996.40,5.862
1996.60,5.788
1996.80,5.86
1997.00,5.86
1997.20,5.846
1997.40,5.818
1997.60,5.852
1997.80,5.852
1998.00,5.87
1998.20,5.848
1998.40,5.86
1998.60,5.822
1998.80,5.838
1999.00,5.89
1999.20,5.834
1999.40,5.826
1999.60,5.86
1999.80,5.834
2000.00,5.808
2000.20,5.812
2000.40,5.888
2000.60,5.804
2000.80,5.892
2001.00,5.838
2001.20,5.874
2001.40,5.81
2001.60,5.83
2001.80,5.844
2002.00,5.854
2002.20,5.838
2002.40,5.904
2002.60,5.81
2002.80,5.86
2003.00,5.83
2003.20,5.824
2003.40,5.848
2003.60,5.854
2003.80,5.854
2004.00,5.838
2004.20,5.818
2004.40,5.856
2004.60,5.826
2004.80,5.816
2005.00,5.874
2005.20,5.812
2005.40,5.856
2005.60,5.856
2005.80,5.832
2006.00,5.834
2006.20,5.804
2006.40,5.852
2006.60,5.834
2006.80,5.87
2007.00,5.876
2007.20,5.802
2007.40,5.832
2007.60,5.866
2007.80,5.832
2008.00,5.808
2008.20,5.86
2008.40,5.824
2008.60,5.876
2008.80,5.772
2009.00,5.856
2009.20,5.84
2009.40,5.86
2009.60,5.854
2009.80,5.86
2010.00,5.844
2010.20,5.878
2010.40,5.854
2010.60,5.824
2010.80,5.882
2011.00,5.812
2011.20,5.84
2011.40,5.862
2011.60,5.818
2011.80,5.83
2012.00,5.8
2012.20,5.868
2012.40,5.782
2012.60,5.852
2012.80,5.856
2013.00,5.882
2013.20,5.83
2013.40,5.866
2013.60,5.918
2013.80,5.838
2014.00,5.83
2014.20,5.796
2014.40,5.848
2014.60,5.826
2014.80,5.888
2015.00,5.796
2015.20,5.838
2015.40,5.856
2015.60,5.84
2015.80,5.86
2016.00,5.834
2016.20,5.846
2016.40,5.846
2016.60,5.834
2016.80,5.824
2017.00,5.834
2017.20,5.832
2017.40,5.868
2017.60,5.848
2017.80,5.844
2018.00,5.822
2018.20,5.832
2018.40,5.832
2018.60,5.898
2018.80,5.8
2019.00,5.844
2019.20,5.838
2019.40,5.818
2019.60,5.796
2019.80,5.878
2020.00,5.848
2020.20,5.838
2020.40,5.956
2020.60,5.772
2020.80,5.866
2021.00,5.862
2021.20,5.83
2021.40,5.862
2021.60,5.852
2021.80,5.84
2022.00,5.816
2022.20,5.826
2022.40,5.854
2022.60,5.878
2022.80,5.838
2023.00,5.808
2023.20,5.866
2023.40,5.852
2023.60,5.824
2023.80,5.838
2024.00,5.87
2024.20,5.782
2024.40,5.824
2024.60,5.852
2024.80,5.856
2025.00,5.882
2025.20,5.834
2025.40,5.838
2025.60,5.878
2025.80,5.818
2026.00,5.818
2026.20,5.838
2026.40,5.834
2026.60,5.81
2026.80,5.822
2027.00,5.876
2027.20,5.832
2027.40,5.832
2027.60,5.9
2027.80,5.874
2028.00,5.89
2028.20,5.826
2028.40,5.884
2028.60,5.826
2028.80,5.838
2029.00,5.808
2029.20,5.89
2029.40,5.856
2029.60,5.838
2029.80,5.818
2030.00,5.848
2030.20,5.838
2030.40,5.804
2030.60,5.89
2030.80,5.874
2031.00,5.822
2031.20,5.824
2031.40,5.832
2031.60,5.874
2031.80,5.826
2032.00,5.816
2032.20,5.866
2032.40,5.846
2032.60,5.822
2032.80,5.794
2033.00,5.838
2033.20,5.822
2033.40,5.868
2033.60,5.854
2033.80,5.878
2034.00,5.856
2034.20,5.866
2034.40,5.78
2034.60,5.862
2034.80,5.856
2035.00,5.84
2035.20,5.87
2035.40,5.818
2035.60,5.838
2035.80,5.832
2036.00,5.856
2036.20,5.852
2036.40,5.878
2036.60,5.862
2036.80,5.834
2037.00,5.826
2037.20,5.834
2037.40,5.854
2037.60,5.782
2037.80,5.86
2038.00,5.89
2038.20,5.838
2038.40,5.904
2038.60,5.768
2038.80,5.826
2039.00,5.904
2039.20,5.794
2039.40,5.824
2039.60,5.844
2039.80,5.772
2040.00,5.89
2040.20,5.824
2040.40,5.848
2040.60,5.888
2040.80,5.81
2041.00,5.834
2041.20,5.848
2041.40,5.818
2041.60,5.838
2041.80,5.856
2042.00,5.824
2042.20,5.87
2042.40,5.846
2042.60,5.79
2042.80,5.878
2043.00,5.876
2043.20,5.848
2043.40,5.822
2043.60,5.856
2043.80,5.846
2044.00,5.838
2044.20,5.86
2044.40,5.808
2044.60,5.86
2044.80,5.808
2045.00,5.826
2045.20,5.904
2045.40,5.862
2045.60,5.87
2045.80,5.782
2046.00,5.838
2046.20,5.824
2046.40,5.92
2046.60,5.808
2046.80,5.848
2047.00,5.856
2047.20,5.832
2047.40,5.874
2047.60,5.852
2047.80,5.854
2048.00,5.86
2048.20,5.878
2048.40,5.796
2048.60,5.84
2048.80,5.896
2049.00,5.862
2049.20,5.83
2049.40,5.824
2049.60,5.86
2049.80,5.78
2050.00,5.834
2050.20,5.89
2050.40,5.906
2050.60,5.87
2050.80,5.8
2051.00,5.822
2051.20,5.824
2051.40,5.868
2051.60,5.824
2051.80,5.818
2052.00,5.804
2052.20,5.87
2052.40,5.868
2052.60,5.882
2052.80,5.824
2053.00,5.76
2053.20,5.844
2053.40,5.846
2053.60,5.848
2053.80,5.818
2054.00,5.852
2054.20,5.808
2054.40,5.866
2054.60,5.81
2054.80,5.898
2055.00,5.832
2055.20,5.888
2055.40,5.822
2055.60,5.818
2055.80,5.822
2056.00,5.832
2056.20,5.802
2056.40,5.972
2056.60,5.722
2056.80,5.868
2057.00,5.87
2057.20,5.848
2057.40,5.866
2057.60,5.838
2057.80,5.86
2058.00,5.854
2058.20,5.856
2058.40,5.854
2058.60,5.83
2058.80,5.826
2059.00,5.84
2059.20,5.786
2059.40,5.848
2059.60,5.868
2059.80,5.866
2060.00,5.824
2060.20,5.822
2060.40,5.862
2060.60,5.848
2060.80,5.86
2061.00,5.838
2061.20,5.804
2061.40,5.832
2061.60,5.84
2061.80,5.824
2062.00,5.878
2062.20,5.854
2062.40,5.866
2062.60,5.768
2062.80,5.848
2063.00,5.838
2063.20,5.824
2063.40,5.866
2063.60,5.79
2063.80,5.86
2064.00,5.86
2064.20,5.818
2064.40,5.822
2064.60,5.846
2064.80,5.83
2065.00,5.856
2065.20,5.808
2065.40,5.824
2065.60,5.874
2065.80,5.854
2066.00,5.818
2066.20,5.846
2066.40,5.824
2066.60,5.84
2066.80,5.802
2067.00,5.84
2067.20,5.87
2067.40,5.856
2067.60,5.848
2067.80,5.826
2068.00,5.866
2068.20,5.834
2068.40,5.884
2068.60,5.834
2068.80,5.878
2069.00,5.854
2069.20,5.838
2069.40,5.826
2069.60,5.822
2069.80,5.862
2070.00,5.848
2070.20,5.812
2070.40,5.832
2070.60,5.84
2070.80,5.848
2071.00,5.87
2071.20,5.812
2071.40,5.868
2071.60,5.824
2071.80,5.852
2072.00,5.866
2072.20,5.838
2072.40,5.838
2072.60,5.868
2072.80,5.84
2073.00,5.83
2073.20,5.854
2073.40,5.8
2073.60,5.848
2073.80,5.896
2074.00,5.84
2074.20,5.826
2074.40,5.92
2074.60,5.766
2074.80,5.834
2075.00,5.832
2075.20,5.86
2075.40,5.834
2075.60,5.808
2075.80,5.834
2076.00,5.844
2076.20,5.86
2076.40,5.868
2076.60,5.826
2076.80,5.84
2077.00,5.856
2077.20,5.896
2077.40,5.878
2077.60,5.812
2077.80,5.856
2078.00,5.888
2078.20,5.804
2078.40,5.83
2078.60,5.84
2078.80,5.838
2079.00,5.822
2079.20,5.866
2079.40,5.83
2079.60,5.846
2079.80,5.846
2080.00,5.856
2080.20,5.818
2080.40,5.844
2080.60,5.848
2080.80,5.852
2081.00,5.862
2081.20,5.852
2081.40,5.848
2081.60,5.838
2081.80,5.852
2082.00,5.86
2082.20,5.808
2082.40,5.838
2082.60,5.826
2082.80,5.83
2083.00,5.818
2083.20,5.866
2083.40,5.868
2083.60,5.824
2083.80,5.896
2084.00,5.804
2084.20,5.844
2084.40,5.834
2084.60,5.87
2084.80,5.844
2085.00,5.846
2085.20,5.816
2085.40,5.848
2085.60,5.848
2085.80,5.802
2086.00,5.866
2086.20,5.86
2086.40,5.818
2086.60,5.86
2086.80,5.876
2087.00,5.832
2087.20,5.846
2087.40,5.856
2087.60,5.786
2087.80,5.862
2088.00,5.83
2088.20,5.878
2088.40,5.816
2088.60,5.852
2088.80,5.89
2089.00,5.838
2089.20,5.822
2089.40,5.83
2089.60,5.866
2089.80,5.848
2090.00,5.824
2090.20,5.844
2090.40,5.816
2090.60,5.832
2090.80,5.846
2091.00,5.83
2091.20,5.884
2091.40,5.832
2091.60,5.896
2091.80,5.822
2092.00,5.818
2092.40,5.788
2092.60,5.84
2092.80,5.834
2093.00,5.856
2093.20,5.824
2093.40,5.812
2093.60,5.87
2093.80,5.804
2094.00,5.872
2094.20,5.862
2094.40,5.84
2094.60,5.838
2094.80,5.832
2095.00,5.87
2095.20,5.834
2095.40,5.824
2095.60,5.834
2095.80,5.862
2096.00,5.862
2096.20,5.838
2096.40,5.9
2096.60,5.832
2096.80,5.784
2097.00,5.848
2097.20,5.824
2097.40,5.782
2097.60,5.87
2097.80,5.816
2098.00,5.892
2098.20,5.876
2098.40,5.87
2098.60,5.86
2098.80,5.818
2099.00,5.842
2099.20,5.862
2099.40,5.824
2099.60,5.848
2099.80,5.804
2100.00,5.84
2100.20,5.868
2100.40,5.85
2100.60,5.842
2100.80,5.868
2101.00,5.838
2101.20,5.796
2101.40,5.884
2101.60,5.788
2101.80,5.848
2102.00,5.85
2102.20,5.806
2102.40,5.878
2102.60,5.84
2102.80,5.824
2103.00,5.828
2103.20,5.89
2103.40,5.818
2103.60,5.846
2103.80,5.838
2104.00,5.862
2104.20,5.824
2104.40,5.806
2104.60,5.812
2104.80,5.848
2105.00,5.828
2105.20,5.868
2105.40,5.846
2105.60,5.758
2105.80,5.85
2106.00,5.886
2106.20,5.87
2106.40,5.84
2106.60,5.782
2106.80,5.834
2107.00,5.838
2107.20,5.85
2107.40,5.834
2107.60,5.96
2107.80,5.722
2108.00,5.846
2108.20,5.846
2108.40,5.794
2108.60,5.746
2108.80,5.85
2109.00,5.832
2109.20,5.876
2109.40,5.9
2109.60,5.818
2109.80,5.832
2110.00,5.824
2110.20,5.832
2110.40,5.824
2110.60,5.824
2110.80,5.826
2111.00,5.802
2111.20,5.864
2111.40,5.86
2111.60,5.868
2111.80,5.884
2112.00,5.828
2112.20,5.85
2112.40,5.856
2112.60,5.832
2112.80,5.85
2113.00,5.818
2113.20,5.832
2113.40,5.842
2113.60,5.82
2113.80,5.89
2114.00,5.788
2114.20,5.878
2114.40,5.848
2114.60,5.862
2114.80,5.812
2115.00,5.882
2115.20,5.868
2115.40,5.848
2115.60,5.846
2115.80,5.826
2116.00,5.804
2116.20,5.878
2116.40,5.802
2116.60,5.89
2116.80,5.832
2117.00,5.868
2117.20,5.842
2117.40,5.842
2117.60,5.796
2117.80,5.864
2118.00,5.878
2118.20,5.81
2118.40,5.848
2118.60,5.828
2118.80,5.862
2119.00,5.818
2119.20,5.838
2119.40,5.754
2119.60,5.842
2119.80,5.804
2120.00,5.856
2120.20,5.892
2120.40,5.81
2120.60,5.85
2120.80,5.842
2121.00,5.862
2121.20,5.832
2121.40,5.82
2121.60,5.82
2121.80,5.838
2122.00,5.872
2122.20,5.832
2122.40,5.864
2122.60,5.85
2122.80,5.864
2123.00,5.81
2123.20,5.81
2123.40,5.802
2123.60,5.828
2123.80,5.862
2124.00,5.84
2124.20,5.876
2124.40,5.818
2124.60,5.86
2124.80,5.838
2125.00,5.798
2125.20,5.862
2125.40,5.868
2125.60,5.988
2125.80,5.732
2126.00,5.768
2126.20,5.872
2126.40,5.85
2126.60,5.838
2126.80,5.842
2127.00,5.826
2127.20,5.876
2127.40,5.818
2127.60,5.81
2127.80,5.85
2128.00,5.862
2128.20,5.862
2128.40,5.802
2128.60,5.848
2128.80,5.862
2129.00,5.794
2129.20,5.854
2129.40,5.882
2129.60,5.824
2129.80,5.868
2130.00,5.834
2130.20,5.848
2130.40,5.824
2130.60,5.84
2130.80,5.82
2131.00,5.84
2131.20,5.856
2131.40,5.868
2131.60,5.812
2131.80,5.828
2132.00,5.856
2132.20,5.848
2132.40,5.876
2132.60,5.828
2132.80,5.846
2133.00,5.872
2133.20,5.81
2133.40,5.878
2133.60,5.85
2133.80,5.894
2134.00,5.82
2134.20,5.834
2134.40,5.788
2134.60,5.902
2134.80,5.82
2135.00,5.834
2135.20,5.802
2135.40,5.864
2135.60,5.838
2135.80,5.894
2136.00,5.826
2136.20,5.796
2136.40,5.89
2136.60,5.798
2136.80,5.856
2137.00,5.864
2137.20,5.85
2137.40,5.824
2137.60,5.802
2137.80,5.85
2138.00,5.862
2138.20,5.854
2138.40,5.838
2138.60,5.838
2138.80,5.78
2139.00,5.854
2139.20,5.862
2139.40,5.886
2139.60,5.842
2139.80,5.846
2140.00,5.78
2140.20,5.85
2140.40,5.856
2140.60,5.848
2140.80,5.798
2141.00,5.828
2141.20,5.846
2141.40,5.794
2141.60,5.856
2141.80,5.834
2142.00,5.834
2142.20,5.854
2142.40,5.838
2142.60,5.84
2142.80,5.856
2143.00,5.846
2143.20,5.818
2143.40,5.818
2143.60,5.902
2143.80,5.768
2144.00,5.848
2144.20,5.86
2144.40,5.894
2144.60,5.806
2144.80,5.794
2145.00,5.894
2145.20,5.882
2145.40,5.826
2145.60,5.868
2145.80,5.804
2146.00,5.84
2146.20,5.824
2146.40,5.838
2146.60,5.89
2146.80,5.834
2147.00,5.87
2147.20,5.834
2147.40,5.812
2147.60,5.854
2147.80,5.854
2148.00,5.812
2148.20,5.856
2148.40,5.9
2148.60,5.868
2148.80,5.762
2149.00,5.854
2149.20,5.82
2149.40,5.85
2149.60,5.81
2149.80,5.898
2150.00,5.86
2150.20,5.82
2150.40,5.824
2150.60,5.846
2150.80,5.824
2151.00,5.81
2151.20,5.838
2151.40,5.872
2151.60,5.824
2151.80,5.84
2152.00,5.876
2152.20,5.812
2152.40,5.806
2152.60,5.826
2152.80,5.81
2153.00,5.878
2153.20,5.816
2153.40,5.832
2153.60,5.802
2153.80,5.816
2154.00,5.85
2154.20,5.82
2154.40,5.884
2154.60,5.87
2154.80,5.818
2155.00,5.848
2155.20,5.862
2155.40,5.85
2155.60,5.846
2155.80,5.818
2156.00,5.86
2156.20,5.816
2156.40,5.818
2156.60,5.856
2156.80,5.842
2157.00,5.868
2157.20,5.84
2157.40,5.78
2157.60,5.854
2157.80,5.806
2158.00,5.818
2158.20,5.796
2158.40,5.872
2158.60,5.85
2158.80,5.9
2159.00,5.788
2159.20,5.86
2159.40,5.832
2159.60,5.854
2159.80,5.846
2160.00,5.812
2160.20,5.828
2160.40,5.872
2160.60,5.876
2160.80,5.84
2161.00,5.842
2161.20,5.832
2161.40,5.834
2161.60,5.882
2161.80,5.752
2162.00,5.882
2162.20,5.802
2162.40,5.85
2162.60,5.826
2162.80,5.854
2163.00,5.826
2163.20,5.828
2163.40,5.848
2163.60,5.87
2163.80,5.848
2164.00,5.85
2164.20,5.826
2164.40,5.838
2164.60,5.826
2164.80,5.824
2165.00,5.842
2165.20,5.804
2165.40,5.87
2165.60,5.842
2165.80,5.806
2166.00,5.862
2166.20,5.862
2166.40,5.846
2166.60,5.84
2166.80,5.824
2167.00,5.818
2167.20,5.818
2167.40,5.864
2167.60,5.828
2167.80,5.816
2168.00,5.846
2168.20,5.834
2168.40,5.868
2168.60,5.902
2168.80,5.834
2169.00,5.768
2169.20,5.86
2169.40,5.868
2169.60,5.826
2169.80,5.848
2170.00,5.846
2170.20,5.826
2170.40,5.86
2170.60,5.842
2170.80,5.818
2171.00,5.806
2171.20,5.89
2171.40,5.816
2171.60,5.842
2171.80,5.862
2172.00,5.794
2172.20,5.832
2172.40,5.832
2172.60,5.898
2172.80,5.804
2173.00,5.864
2173.20,5.834
2173.40,5.85
2173.60,5.85
2173.80,5.842
2174.00,5.846
2174.20,5.864
2174.40,5.824
2174.60,5.818
2174.80,5.842
2175.00,5.856
2175.20,5.78
2175.40,5.82
2175.60,5.826
2175.80,5.856
2176.00,5.892
2176.20,5.812
2176.40,5.886
2176.60,5.798
2176.80,5.864
2177.00,5.838
2177.20,5.846
2177.40,5.848
2177.60,5.842
2177.80,5.834
2178.00,5.828
2178.20,5.834
2178.40,5.832
2178.60,5.78
2178.80,5.878
2179.00,5.842
2179.20,5.834
2179.40,5.824
2179.60,5.938
2179.80,5.78
2180.00,5.824
2180.20,5.818
2180.40,5.854
2180.60,5.826
2180.80,5.872
2181.00,5.872
2181.20,5.832
2181.40,5.84
2181.60,5.828
2181.80,5.826
2182.00,5.842
2182.20,5.84
2182.40,5.832
2182.60,5.856
2182.80,5.802
2183.00,5.848
2183.20,5.878
2183.40,5.862
2183.60,5.848
2183.80,5.824
2184.00,5.856
2184.20,5.766
2184.40,5.89
2184.60,5.842
2184.80,5.818
2185.00,5.85
2185.20,5.842
2185.40,5.86
2185.60,5.856
2185.80,5.912
2186.00,5.802
2186.20,5.79
2186.40,5.824
2186.60,5.868
2186.80,5.834
2187.00,5.826
2187.20,5.892
2187.40,5.876
2187.60,5.81
2187.80,5.834
2188.00,5.87
2188.20,5.816
2188.40,5.864
2188.60,5.824
2188.80,5.828
2189.00,5.87
2189.20,5.832
2189.40,5.804
2189.60,5.828
2189.80,5.85
2190.00,5.84
2190.20,5.796
2190.40,5.846
2190.60,5.872
2190.80,5.834
2191.00,5.85
2191.20,5.85
2191.40,5.826
2191.60,5.868
2191.80,5.85
2192.00,5.868
2192.20,5.79
2192.40,5.864
2192.60,5.856
2192.80,5.774
2193.00,5.856
2193.20,5.804
2193.40,5.85
2193.60,5.824
2193.80,5.84
2194.00,5.842
2194.20,5.824
2194.40,5.862
2194.60,5.878
2194.80,5.816
2195.00,5.838
2195.20,5.832
2195.40,5.856
2195.60,5.882
2195.80,5.802
2196.00,5.864
2196.20,5.876
2196.40,5.848
2196.60,5.87
2196.80,5.794
2197.00,5.81
2197.20,5.824
2197.40,5.846
2197.60,5.9
2197.80,5.768
2198.00,5.894
2198.20,5.838
2198.40,5.86
2198.60,5.816
2198.80,5.816
2199.00,5.81
2199.20,5.838
2199.40,5.854
2199.60,5.862
2199.80,5.832
2200.00,5.854
2200.20,5.85
2200.40,5.81
2200.60,5.832
2200.80,5.868
2201.00,5.834
2201.20,5.86
2201.40,5.82
2201.60,5.84
2201.80,5.828
2202.00,5.806
2202.20,5.838
2202.40,5.882
2202.60,5.818
2202.80,5.824
2203.00,5.846
2203.20,5.842
2203.40,5.884
2203.60,5.846
2203.80,5.826
2204.00,5.812
2204.20,5.868
2204.40,5.85
2204.60,5.826
2204.80,5.826
2205.00,5.864
2205.20,5.782
2205.40,5.868
2205.60,5.912
2205.80,5.868
2206.00,5.816
2206.20,5.826
2206.40,5.85
2206.60,5.884
2206.80,5.82
2207.00,5.804
2207.20,5.834
2207.40,5.876
2207.60,5.812
2207.80,5.838
2208.00,5.85
2208.20,5.834
2208.40,5.862
2208.60,5.804
2208.80,5.864
2209.00,5.848
2209.20,5.826
2209.40,5.846
2209.60,5.846
2209.80,5.832
2210.00,5.838
2210.20,5.846
2210.40,5.818
2210.60,5.848
2210.80,5.886
2211.00,5.824
2211.20,5.812
2211.40,5.828
2211.60,5.842
2211.80,5.848
2212.00,5.882
2212.20,5.81
2212.40,5.81
2212.60,5.812
2212.80,5.9
2213.00,5.838
2213.20,5.89
2213.40,5.828
2213.60,5.806
2213.80,5.828
2214.00,5.9
2214.20,5.864
2214.40,5.846
2214.60,5.806
2214.80,5.796
2215.00,5.848
2215.20,5.876
2215.40,5.84
2215.60,5.944
2215.80,5.758
2216.00,5.86
2216.20,5.828
2216.40,5.868
2216.60,5.824
2216.80,5.854
2217.00,5.868
2217.20,5.812
2217.40,5.842
2217.60,5.794
2217.80,5.824
2218.00,5.908
2218.20,5.87
2218.40,5.816
2218.60,5.802
2218.80,5.806
2219.00,5.818
2219.20,5.842
2219.40,5.796
2219.60,5.872
2219.80,5.914
2220.00,5.848
2220.20,5.84
2220.40,5.842
2220.60,5.802
2220.80,5.828
2221.00,5.82
2221.20,5.872
2221.40,5.84
2221.60,5.838
2221.80,5.868
2222.00,5.776
2222.20,5.87
2222.40,5.86
2222.60,5.86
2222.80,5.842
2223.00,5.848
2223.20,5.824
2223.40,5.82
2223.60,5.872
2223.80,5.802
2224.00,5.85
2224.20,5.796
2224.40,5.868
2224.60,5.864
2224.80,5.824
2225.00,5.82
2225.20,5.834
2225.40,5.846
2225.60,5.82
2225.80,5.796
2226.00,5.842
2226.20,5.838
2226.40,5.89
2226.60,5.854
2226.80,5.804
2227.00,5.862
2227.20,5.828
2227.40,5.864
2227.60,5.856
2227.80,5.892
2228.00,5.774
2228.20,5.828
2228.40,5.848
2228.60,5.894
2228.80,5.828
2229.00,5.878
2229.20,5.818
2229.40,5.84
2229.60,5.846
2229.80,5.834
2230.00,5.82
2230.20,5.848
2230.40,5.848
2230.60,5.838
2230.80,5.85
2231.00,5.81
2231.20,5.84
2231.40,5.882
2231.60,5.784
2231.80,5.84
2232.00,5.802
2232.20,5.868
2232.40,5.832
2232.60,5.838
2232.80,5.838
2233.00,5.842
2233.20,5.818
2233.40,5.848
2233.60,5.98
2233.80,5.762
2234.00,5.856
2234.20,5.842
2234.40,5.854
2234.60,5.832
2234.80,5.862
2235.00,5.832
2235.20,5.842
2235.40,5.898
2235.60,5.788
2235.80,5.848
2236.00,5.804
2236.20,5.854
2236.40,5.85
2236.60,5.876
2236.80,5.848
2237.00,5.834
2237.20,5.828
2237.40,5.868
2237.60,5.864
2237.80,5.878
2238.00,5.86
2238.20,5.818
2238.40,5.826
2238.60,5.834
2238.80,5.832
2239.00,5.824
2239.20,5.89
2239.40,5.828
2239.60,5.828
2239.80,5.824
2240.00,5.798
2240.20,5.894
2240.40,5.864
2240.60,5.924
2240.80,5.85
2241.00,5.898
2241.20,5.856
2241.40,5.84
2241.60,3.97
2241.80,12.478
2242.00,14.036
2242.20,10.538
2242.40,10.65
2242.60,12.14
2242.80,25.724
2243.00,26.204
2243.20,24.506
2243.40,25.162
2243.60,25.272
2243.80,25.416
2244.00,25.432
2244.20,25.376
2244.40,25.478
2244.60,25.434
2244.80,25.43
2245.00,25.518
2245.20,25.364
2245.40,25.374
2245.60,25.482
2245.80,25.408
2246.00,25.456
2246.20,25.478
2246.40,25.498
2246.60,25.398
2246.80,25.418
2247.00,25.498
2247.20,25.462
2247.40,25.536
2247.60,25.404
2247.80,25.442
2248.00,25.396
2248.20,25.452
2248.40,25.424
2248.60,25.506
2248.80,25.446
2249.00,25.464
2249.20,25.454
2249.40,25.49
2249.60,25.47
2249.80,25.43
2250.00,25.46
2250.20,25.486
2250.40,25.452
2250.60,25.44
2250.80,25.46
2251.00,25.402
2251.20,25.388
2251.40,25.432
2251.60,26.282
2251.80,25.004
2252.00,25.418
2252.20,25.418
2252.40,25.468
2252.60,25.446
2252.80,25.394
2253.00,25.462
2253.20,25.512
2253.40,25.468
2253.60,25.418
2253.80,25.44
2254.00,25.462
2254.20,25.552
2254.40,25.416
2254.60,25.462
2254.80,25.504
2255.00,25.468
2255.20,25.438
2255.40,25.478
2255.60,25.512
2255.80,25.46
2256.00,25.352
2256.20,25.432
2256.40,25.462
2256.60,25.454
2256.80,25.47
2257.00,25.496
2257.20,25.474
2257.40,25.446
2257.60,25.482
2257.80,25.432
2258.00,25.442
2258.20,25.482
2258.40,25.492
2258.60,25.404
2258.80,25.456
2259.00,25.408
2259.20,25.484
2259.40,25.404
2259.60,25.484
2259.80,25.56
2260.00,25.408
2260.20,25.462
2260.40,25.482
2260.60,25.434
2260.80,25.448
2261.00,25.402
2261.20,25.762
2261.40,25.486
2261.60,25.462
2261.80,25.424
2262.00,25.454
2262.20,25.462
2262.40,25.388
2262.60,25.474
2262.80,25.41
2263.00,25.432
2263.20,25.432
2263.40,25.49
2263.60,25.418
2263.80,25.616
2264.00,25.408
2264.20,25.396
2264.40,25.468
2264.60,25.456
2264.80,25.424
2265.00,25.486
2265.20,25.476
2265.40,25.438
2265.60,25.44
2265.80,25.452
2266.00,25.358
2266.20,25.416
2266.40,25.496
2266.60,25.484
2266.80,25.438
2267.00,25.446
2267.20,25.416
2267.40,25.46
2267.60,25.41
2267.80,25.474
2268.00,25.56
2268.20,25.434
2268.40,25.424
2268.60,25.438
2268.80,25.432
2269.00,25.41
2269.20,25.474
2269.40,25.434
2269.60,25.904
2269.80,25.02
2270.00,25.44
2270.20,25.38
2270.40,25.416
2270.60,25.652
2270.80,25.416
2271.00,25.454
2271.20,25.402
2271.40,25.464
2271.60,25.426
2271.80,25.47
2272.00,25.504
2272.20,25.448
2272.40,25.366
2272.60,25.462
2272.80,25.456
2273.00,25.366
2273.20,25.46
2273.40,25.478
2273.60,25.464
2273.80,25.486
2274.00,25.234
2274.20,25.42
2274.40,25.476
2274.60,25.49
2274.80,25.492
2275.00,25.46
2275.20,25.454
2275.40,25.42
2275.60,25.394
2275.80,25.38
2276.00,25.486
2276.20,25.482
2276.40,25.504
2276.60,25.438
2276.80,25.496
2277.00,25.402
2277.20,25.426
2277.40,25.432
2277.60,25.528
2277.80,25.478
2278.00,25.416
2278.20,25.456
2278.40,25.372
2278.60,25.46
2278.80,25.464
2279.00,25.42
2279.20,25.448
2279.40,25.448
2279.60,25.398
2279.80,25.476
2280.00,25.426
2280.20,25.864
2280.40,25.344
2280.60,25.364
2280.80,25.504
2281.00,25.42
2281.20,25.474
2281.40,25.41
2281.60,25.522
2281.80,25.456
2282.00,25.416
2282.20,25.404
2282.40,25.41
2282.60,25.498
2282.80,25.456
2283.00,25.482
2283.20,25.418
2283.40,25.448
2283.60,25.424
2283.80,25.416
2284.00,25.408
2284.20,25.418
2284.40,25.564
2284.60,25.452
2284.80,25.424
2285.00,25.404
2285.20,25.482
2285.40,25.386
2285.60,25.402
2285.80,25.5
2286.00,25.442
2286.20,25.416
2286.40,25.404
2286.60,25.408
2286.80,25.514
2287.00,25.462
2287.20,25.408
2287.40,25.396
2287.60,25.814
2287.80,25.016
2288.00,25.424
2288.20,25.454
2288.40,25.452
2288.60,25.452
2288.80,25.394
2289.00,25.438
2289.20,25.456
2289.40,25.47
2289.60,25.42
2289.80,25.674
2290.00,25.506
2290.20,25.424
2290.40,25.416
2290.60,25.454
2290.80,25.446
2291.00,25.454
2291.20,25.564
2291.40,25.41
2291.60,25.418
2291.80,25.454
2292.00,25.394
2292.20,25.442
2292.40,25.416
2292.60,25.448
2292.80,25.522
2293.00,25.482
2293.20,25.376
2293.40,25.484
2293.60,25.416
2293.80,25.426
2294.00,25.442
2294.20,25.404
2294.40,25.386
2294.60,25.496
2294.80,25.43
2295.00,25.454
2295.20,25.476
2295.40,25.388
2295.60,25.42
2295.80,25.486
2296.00,25.39
2296.20,25.388
2296.40,25.434
2296.60,25.544
2296.80,25.448
2297.00,25.442
2297.20,25.452
2297.40,25.358
2297.60,25.49
2297.80,25.442
2298.00,25.468
2298.20,25.448
2298.40,25.434
2298.60,25.352
2298.80,25.512
2299.00,25.36
2299.20,25.47
2299.40,25.764
2299.60,25.376
2299.80,25.424
2300.00,25.434
2300.20,25.394
2300.40,25.454
2300.60,25.42
2300.80,25.484
2301.00,25.38
2301.20,25.484
2301.40,25.418
2301.60,25.47
2301.80,25.39
2302.00,25.402
2302.20,25.526
2302.40,25.424
2302.60,25.386
2302.80,25.482
2303.00,25.346
2303.20,25.504
2303.40,25.528
2303.60,25.38
2303.80,25.46
2304.00,25.438
2304.20,25.39
2304.40,25.454
2304.60,25.398
2304.80,25.512
2305.00,25.404
2305.20,25.408
2305.40,25.366
2305.60,25.866
2305.80,25.046
2306.00,25.39
2306.20,25.58
2306.40,25.396
2306.60,25.394
2306.80,25.416
2307.00,25.452
2307.20,25.398
2307.40,25.404
2307.60,25.506
2307.80,25.47
2308.00,25.474
2308.20,25.39
2308.40,25.398
2308.60,25.544
2308.80,25.36
2309.00,25.736
2309.20,25.478
2309.40,25.354
2309.60,25.374
2309.80,25.504
2310.00,25.448
2310.20,25.338
2310.40,25.442
2310.60,25.566
2310.80,25.396
2311.00,25.426
2311.20,25.382
2311.40,25.396
2311.60,25.558
2311.80,25.372
2312.00,25.47
2312.20,25.448
2312.40,25.446
2312.60,25.438
2312.80,25.394
2313.00,25.56
2313.20,25.416
2313.40,25.484
2313.60,25.322
2313.80,25.43
2314.00,25.446
2314.20,25.386
2314.40,25.528
2314.60,25.426
2314.80,25.452
2315.00,25.44
2315.20,25.368
2315.40,25.448
2315.60,25.432
2315.80,25.506
2316.00,25.464
2316.20,25.394
2316.40,25.486
2316.60,25.442
2316.80,25.368
2317.00,25.47
2317.20,25.5
2317.40,25.434
2317.60,25.442
2317.80,25.442
2318.00,25.424
2318.20,25.474
2318.40,25.41
2318.60,25.658
2318.80,25.46
2319.00,25.396
2319.20,25.512
2319.40,25.32
2319.60,25.404
2319.80,25.566
2320.00,25.372
2320.20,25.498
2320.40,25.398
2320.60,25.41
2320.80,25.418
2321.00,25.416
2321.20,25.482
2321.40,25.41
2321.60,25.504
2321.80,25.372
2322.00,25.416
2322.20,25.486
2322.40,25.464
2322.60,25.416
2322.80,25.412
2323.00,25.368
2323.20,25.442
2323.40,25.46
2323.60,25.8
2323.80,24.982
2324.00,25.482
2324.20,25.418
2324.40,25.352
2324.60,25.446
2324.80,25.46
2325.00,25.43
2325.20,25.35
2325.40,25.468
2325.60,25.46
2325.80,25.398
2326.00,25.41
2326.20,25.446
2326.40,25.352
2326.60,25.448
2326.80,25.5
2327.00,25.398
2327.20,25.518
2327.40,25.432
2327.60,25.416
2327.80,25.404
2328.00,25.864
2328.20,25.236
2328.40,25.328
2328.60,25.534
2328.80,25.33
2329.00,25.452
2329.20,25.36
2329.40,25.582
2329.60,25.418
2329.80,25.448
2330.00,25.438
2330.20,25.376
2330.40,25.424
2330.60,25.426
2330.80,25.492
2331.00,25.468
2331.20,25.394
2331.40,25.418
2331.60,25.454
2331.80,25.38
2332.00,25.44
2332.20,25.542
2332.40,25.398
2332.60,25.396
2332.80,25.39
2333.00,25.446
2333.20,25.344
2333.40,25.446
2333.60,25.536
2333.80,25.49
2334.00,25.416
2334.20,25.42
2334.40,25.408
2334.60,25.38
2334.80,25.464
2335.00,25.374
2335.20,25.496
2335.40,25.448
2335.60,25.46
2335.80,25.448
2336.00,25.396
2336.20,25.542
2336.40,25.402
2336.60,25.376
2336.80,25.41
2337.00,25.412
2337.20,25.346
2337.40,25.376
2337.60,25.742
2337.80,25.388
2338.00,25.476
2338.20,25.504
2338.40,25.374
2338.60,25.454
2338.80,25.41
2339.00,25.5
2339.20,25.402
2339.40,25.454
2339.60,25.418
2339.80,25.35
2340.00,25.402
2340.20,25.456
2340.40,25.508
2340.60,25.408
2340.80,25.416
2341.00,25.404
2341.20,25.35
2341.40,25.474
2341.60,25.846
2341.80,25.042
2342.00,25.388
2342.20,25.474
2342.40,25.38
2342.60,25.46
2342.80,25.396
2343.00,25.376
2343.20,25.504
2343.40,25.446
2343.60,25.462
2343.80,25.426
2344.00,25.426
2344.20,25.452
2344.40,25.608
2344.60,25.322
2344.80,25.368
2345.00,25.492
2345.20,25.404
2345.40,25.382
2345.60,25.41
2345.80,25.474
2346.00,25.448
2346.20,25.434
2346.40,25.396
2346.60,25.418
2346.80,25.398
2347.00,25.424
2347.20,25.644
2347.40,25.44
2347.60,25.434
2347.80,25.36
2348.00,25.474
2348.20,25.38
2348.40,25.504
2348.60,25.514
2348.80,25.424
2349.00,25.388
2349.20,25.416
2349.40,25.36
2349.60,25.412
2349.80,25.47
2350.00,25.536
2350.20,25.36
2350.40,25.386
2350.60,25.424
2350.80,25.412
2351.00,25.456
2351.20,25.44
2351.40,25.382
2351.60,25.442
2351.80,25.394
2352.00,25.47
2352.20,25.336
2352.40,25.514
2352.60,25.49
2352.80,25.376
2353.00,25.358
2353.20,25.512
2353.40,25.386
2353.60,25.41
2353.80,25.418
2354.00,25.462
2354.20,25.432
2354.40,25.402
2354.60,25.418
2354.80,25.424
2355.00,25.5
2355.20,25.352
2355.40,25.478
2355.60,25.35
2355.80,25.394
2356.00,25.456
2356.20,25.402
2356.40,25.474
2356.60,25.486
2356.80,25.746
2357.00,25.376
2357.20,25.41
2357.40,25.346
2357.60,25.416
2357.80,25.338
2358.00,25.456
2358.20,25.542
2358.40,25.434
2358.60,25.328
2358.80,25.36
2359.00,25.47
2359.20,25.358
2359.40,25.468
2359.60,25.868
2359.80,25.05
2360.00,25.324
2360.20,25.462
2360.40,25.38
2360.60,25.412
2360.80,25.53
2361.00,25.39
2361.20,25.354
2361.40,25.504
2361.60,25.412
2361.80,25.372
2362.00,25.394
2362.20,25.446
2362.40,25.432
2362.60,25.468
2362.80,25.434
2363.00,25.408
2363.20,25.452
2363.40,25.432
2363.60,25.514
2363.80,25.314
2364.00,25.426
2364.20,25.374
2364.40,25.452
2364.60,25.454
2364.80,25.424
2365.00,25.434
2365.20,25.486
2365.40,25.416
2365.60,25.302
2365.80,25.43
2366.00,25.43
2366.20,25.47
2366.40,25.724
2366.60,25.43
2366.80,25.456
2367.00,25.426
2367.20,25.352
2367.40,25.474
2367.60,25.43
2367.80,25.42
2368.00,25.432
2368.20,25.408
2368.40,25.382
2368.60,25.398
2368.80,25.338
2369.00,25.578
2369.20,25.342
2369.40,25.418
2369.60,25.394
2369.80,25.456
2370.00,25.462
2370.20,25.382
2370.40,25.44
2370.60,25.484
2370.80,25.424
2371.00,25.402
2371.20,25.424
2371.40,25.484
2371.60,25.396
2371.80,25.398
2372.00,25.446
2372.20,25.442
2372.40,25.372
2372.60,25.358
2372.80,25.504
2373.00,25.382
2373.20,25.55
2373.40,25.342
2373.60,25.346
2373.80,25.456
2374.00,25.434
2374.20,25.474
2374.40,25.324
2374.60,25.536
2374.80,25.408
2375.00,25.398
2375.20,25.366
2375.40,25.42
2375.60,25.386
2375.80,25.602
2376.00,25.52
2376.20,25.396
2376.40,25.464
2376.60,25.358
2376.80,25.374
2377.00,25.376
2377.20,25.61
2377.40,25.346
2377.60,25.872
2377.80,25.012
2378.00,25.426
2378.20,25.454
2378.40,25.452
2378.60,25.372
2378.80,25.478
2379.00,25.39
2379.20,25.424
2379.40,25.386
2379.60,25.396
2379.80,25.442
2380.00,25.5
2380.20,25.376
2380.40,25.398
2380.60,25.442
2380.80,25.456
2381.00,25.402
2381.20,25.368
2381.40,25.544
2381.60,25.394
2381.80,25.446
2382.00,25.382
2382.20,25.38
2382.40,25.46
2382.60,25.454
2382.80,25.424
2383.00,25.434
2383.20,25.434
2383.40,25.43
2383.60,25.468
2383.80,25.368
2384.00,25.432
2384.20,25.462
2384.40,25.402
2384.60,25.43
2384.80,25.452
2385.00,25.386
2385.20,25.452
2385.40,25.856
2385.60,25.306
2385.80,25.438
2386.00,25.32
2386.20,25.43
2386.40,25.5
2386.60,25.36
2386.80,25.47
2387.00,25.478
2387.20,25.376
2387.40,25.446
2387.60,25.42
2387.80,25.496
2388.00,25.43
2388.20,25.448
2388.40,25.372
2388.60,25.396
2388.80,25.39
2389.00,25.452
2389.20,25.408
2389.40,25.442
2389.60,25.504
2389.80,25.354
2390.00,25.374
2390.20,25.442
2390.40,25.39
2390.60,25.374
2390.80,25.468
2391.00,25.39
2391.20,25.432
2391.40,25.424
2391.60,25.424
2391.80,25.35
2392.00,25.386
2392.20,25.508
2392.60,25.55
2392.80,25.878
2393.00,24.934
2393.20,25.41
2393.40,25.536
2393.60,25.418
2393.80,25.402
2394.00,25.42
2394.20,25.39
2394.40,25.412
2394.60,25.394
2394.80,25.624
2395.00,25.556
2395.20,25.43
2395.40,25.418
2395.60,25.5
2395.80,25.386
2396.00,25.408
2396.20,25.53
2396.40,25.426
2396.60,25.42
2396.80,25.388
2397.00,25.426
2397.20,25.434
2397.40,25.486
2397.60,25.456
2397.80,25.434
2398.00,25.386
2398.20,25.432
2398.40,25.404
2398.60,25.446
2398.80,25.36
2399.00,25.558
2399.20,25.442
2399.40,25.418
2399.60,25.368
2399.80,25.482
2400.00,25.338
2400.20,25.504
2400.40,25.452
2400.60,25.366
2400.80,25.478
2401.00,25.41
2401.20,25.404
2401.40,25.408
2401.60,25.492
2401.80,25.396
2402.00,25.386
2402.20,25.456
2402.40,25.416
2402.60,25.46
2402.80,25.322
2403.00,25.492
2403.20,25.398
2403.40,25.43
2403.60,25.526
2403.80,25.366
2404.00,25.448
2404.20,25.372
2404.40,25.726
2404.60,25.316
2404.80,25.424
2405.00,25.484
2405.20,25.38
2405.40,25.446
2405.60,25.41
2405.80,25.506
2406.00,25.32
2406.20,25.462
2406.40,25.364
2406.60,25.484
2406.80,25.36
2407.00,25.522
2407.20,25.476
2407.40,25.358
2407.60,25.41
2407.80,25.382
2408.00,25.416
2408.20,25.484
2408.40,25.46
2408.60,25.468
2408.80,25.416
2409.00,25.364
2409.20,25.484
2409.40,25.46
2409.60,25.39
2409.80,25.446
2410.00,25.456
2410.20,25.408
2410.40,25.39
2410.60,25.394
2410.80,25.872
2411.00,25.016
2411.20,25.426
2411.40,25.456
2411.60,25.382
2411.80,25.396
2412.00,25.43
2412.20,25.404
2412.40,25.416
2412.60,25.512
2412.80,25.396
2413.00,25.386
2413.20,25.396
2413.40,25.486
2413.60,25.418
2413.80,25.482
2414.00,25.792
2414.20,25.42
2414.40,25.404
2414.60,25.374
2414.80,25.43
2415.00,25.418
2415.20,25.41
2415.40,25.396
2415.60,25.456
2415.80,25.346
2416.00,25.396
2416.20,25.416
2416.40,25.446
2416.60,25.57
2416.80,25.39
2417.00,25.364
2417.20,25.456
2417.40,25.426
2417.60,25.41
2417.80,25.432
2418.00,25.514
2418.20,25.408
2418.40,25.512
2418.60,25.424
2418.80,25.434
2419.00,25.368
2419.20,25.316
2419.40,25.52
2419.60,25.446
2419.80,25.404
2420.00,25.468
2420.20,25.446
2420.40,25.426
2420.60,25.398
2420.80,25.416
2421.00,25.412
2421.20,25.376
2421.40,25.452
2421.60,25.448
2421.80,25.412
2422.00,25.352
2422.20,25.534
2422.40,25.36
2422.60,25.408
2422.80,25.442
2423.00,25.352
2423.20,25.44
2423.40,25.374
2423.60,25.596
2423.80,25.512
2424.00,25.36
2424.20,25.41
2424.40,25.41
2424.60,25.382
2424.80,25.63
2425.00,25.358
2425.20,25.434
2425.40,25.366
2425.60,25.404
2425.80,25.388
2426.00,25.346
2426.20,25.476
2426.40,25.386
2426.60,25.46
2426.80,25.278
2427.00,25.446
2427.20,25.298
2427.40,25.464
2427.60,25.442
2427.80,25.402
2428.00,25.446
2428.20,25.452
2428.40,25.352
2428.60,25.448
2428.80,25.834
2429.00,25.012
2429.20,25.404
2429.40,25.408
2429.60,25.424
2429.80,25.426
2430.00,25.372
2430.20,25.39
2430.40,25.506
2430.60,25.376
2430.80,25.452
2431.00,25.442
2431.20,25.354
2431.40,25.394
2431.60,25.424
2431.80,25.506
2432.00,25.418
2432.20,25.42
2432.40,25.416
2432.60,25.412
2432.80,25.388
2433.00,25.828
2433.20,25.316
2433.40,25.412
2433.60,25.526
2433.80,25.352
2434.00,25.374
2434.20,25.396
2434.40,25.46
2434.60,25.43
2434.80,25.426
2435.00,25.386
2435.20,25.366
2435.40,25.404
2435.60,25.442
2435.80,25.448
2436.00,25.454
2436.20,25.418
2436.40,25.396
2436.60,25.424
2436.80,25.368
2437.00,25.416
2437.20,25.5
2437.40,25.476
2437.60,25.366
2437.80,25.396
2438.00,25.432
2438.20,25.434
2438.40,25.418
2438.60,25.5
2438.80,25.408
2439.00,25.46
2439.20,25.366
2439.40,25.398
2439.60,25.492
2439.80,25.42
2440.00,25.508
2440.20,25.408
2440.40,25.412
2440.60,25.424
2440.80,25.412
2441.00,25.424
2441.20,25.478
2441.40,25.39
2441.60,25.438
2441.80,25.352
2442.00,25.41
2442.20,25.43
2442.40,25.434
2442.60,25.742
2442.80,25.404
2443.00,25.38
2443.20,25.468
2443.40,25.39
2443.60,25.44
2443.80,25.408
2444.00,25.438
2444.20,25.438
2444.40,25.404
2444.60,25.44
2444.80,25.464
2445.00,25.352
2445.20,25.446
2445.40,25.52
2445.60,25.366
2445.80,25.434
2446.00,25.44
2446.20,25.416
2446.40,25.364
2446.60,25.464
2446.80,25.902
2447.00,25.058
2447.20,25.39
2447.40,25.38
2447.60,25.442
2447.80,25.374
2448.00,25.464
2448.20,25.448
2448.40,25.42
2448.60,25.446
2448.80,25.43
2449.00,25.416
2449.20,25.344
2449.40,25.602
2449.60,25.36
2449.80,25.346
2450.00,25.404
2450.20,25.41
2450.40,25.368
2450.60,25.408
2450.80,25.526
2451.00,25.41
2451.20,25.388
2451.40,25.482
2451.60,25.442
2451.80,25.344
2452.00,25.396
2452.20,25.698
2452.40,25.486
2452.60,25.376
2452.80,25.416
2453.00,25.446
2453.20,25.438
2453.40,25.418
2453.60,25.506
2453.80,25.426
2454.00,25.424
2454.20,25.388
2454.40,25.438
2454.60,25.424
2454.80,25.456
2455.00,25.426
2455.20,25.386
2455.40,25.38
2455.60,25.442
2455.80,25.366
2456.00,25.412
2456.20,25.416
2456.40,25.46
2456.60,25.434
2456.80,25.476
2457.00,25.372
2457.20,25.36
2457.40,25.416
2457.60,25.492
2457.80,25.442
2458.00,25.39
2458.20,25.418
2458.40,25.38
2458.60,25.394
2458.80,25.352
2459.00,25.514
2459.20,25.396
2459.40,25.504
2459.60,25.376
2459.80,25.42
2460.00,25.434
2460.20,25.44
2460.40,25.416
2460.60,25.398
2460.80,25.416
2461.00,25.44
2461.20,25.42
2461.40,25.394
2461.60,25.418
2461.80,25.758
2462.00,25.354
2462.20,25.382
2462.40,25.446
2462.60,25.432
2462.80,25.416
2463.00,25.418
2463.20,25.456
2463.40,25.396
2463.60,25.398
2463.80,25.482
2464.00,25.382
2464.20,25.412
2464.40,25.474
2464.60,25.418
2464.80,25.864
2465.00,24.978
2465.20,25.376
2465.40,25.328
2465.60,25.354
2465.80,25.58
2466.00,25.352
2466.20,25.44
2466.40,25.434
2466.60,25.38
2466.80,25.386
2467.00,25.36
2467.20,25.498
2467.40,25.492
2467.60,25.352
2467.80,25.438
2468.00,25.382
2468.20,25.438
2468.40,25.416
2468.60,25.462
2468.80,25.416
2469.00,25.432
2469.20,25.336
2469.40,25.412
2469.60,25.396
2469.80,25.434
2470.00,25.56
2470.20,25.35
2470.40,25.416
2470.60,25.44
2470.80,25.42
2471.00,25.43
2471.20,25.338
2471.40,25.754
2471.60,25.44
2471.80,25.438
2472.00,25.364
2472.20,25.42
2472.40,25.394
2472.60,25.474
2472.80,25.412
2473.00,25.35
2473.20,25.498
2473.40,25.418
2473.60,25.418
2473.80,25.454
2474.00,25.456
2474.20,25.354
2474.40,25.474
2474.60,25.478
2474.80,25.376
2475.00,25.342
2475.20,25.35
2475.40,25.446
2475.60,25.514
2475.80,25.438
2476.00,25.462
2476.20,25.438
2476.40,25.412
2476.60,25.398
2476.80,25.512
2477.00,25.382
2477.20,25.41
2477.40,25.412
2477.60,25.44
2477.80,25.41
2478.00,25.408
2478.20,25.478
2478.40,25.42
2478.60,25.376
2478.80,25.432
2479.00,25.408
2479.20,25.412
2479.40,25.394
2479.60,25.53
2479.80,25.332
2480.00,25.454
2480.20,25.38
2480.40,25.426
2480.60,25.396
2480.80,25.486
2481.00,25.56
2481.20,25.434
2481.40,25.46
2481.60,25.364
2481.80,25.344
2482.00,25.456
2482.20,25.528
2482.40,25.354
2482.60,25.46
2482.80,25.828
2483.00,24.888
2483.20,25.408
2483.40,25.434
2483.60,25.526
2483.80,25.41
2484.00,25.388
2484.20,25.496
2484.40,25.432
2484.60,25.41
2484.80,25.386
2485.00,25.518
2485.20,25.372
2485.40,25.368
2485.60,25.456
2485.80,25.358
2486.00,25.496
2486.20,25.39
2486.40,25.536
2486.60,25.342
2486.80,25.43
2487.00,25.41
2487.20,25.396
2487.40,25.426
2487.60,25.398
2487.80,25.476
2488.00,25.44
2488.20,25.412
2488.40,25.374
2488.60,25.434
2488.80,25.482
2489.00,25.452
2489.20,25.316
2489.40,25.452
2489.60,25.496
2489.80,25.35
2490.00,25.438
2490.20,25.434
2490.40,25.834
2490.60,25.248
2490.80,25.41
2491.00,25.426
2491.20,25.388
2491.40,25.284
2491.60,25.456
2491.80,25.446
2492.00,25.47
2492.20,25.528
2492.40,25.314
2492.60,25.368
2492.80,25.49
2493.00,25.372
2493.20,25.456
2493.40,25.416
2493.60,25.432
2493.80,25.41
2494.00,25.342
2494.20,25.5
2494.40,25.402
2494.60,25.476
2494.80,25.424
2495.00,25.42
2495.20,25.438
2495.40,25.426
2495.60,25.424
2495.80,25.396
2496.00,25.482
2496.20,25.456
2496.40,25.404
2496.60,25.426
2496.80,25.424
2497.00,25.358
2497.20,25.49
2497.40,25.398
2497.60,25.462
2497.80,25.396
2498.00,25.412
2498.20,25.404
2498.40,25.368
2498.60,25.552
2498.80,25.344
2499.00,25.452
2499.20,25.396
2499.40,25.452
2499.60,25.332
2499.80,25.484
2500.00,25.688
2500.20,25.432
2500.40,25.464
2500.60,25.432
2500.80,25.8
2501.00,24.97
2501.20,25.408
2501.40,25.484
2501.60,25.448
2501.80,25.354
2502.00,25.434
2502.20,25.44
2502.40,25.38
2502.60,25.386
2502.80,25.508
2503.00,25.412
2503.20,25.434
2503.40,25.372
2503.60,25.522
2503.80,25.346
2504.00,25.426
2504.20,25.426
2504.40,25.32
2504.60,25.42
2504.80,25.484
2505.00,25.382
2505.20,25.434
2505.40,25.512
2505.60,25.448
2505.80,25.292
2506.00,25.492
2506.20,25.39
2506.40,25.402
2506.60,25.446
2506.80,25.468
2507.00,25.404
2507.20,25.416
2507.40,25.442
2507.60,25.416
2507.80,25.33
2508.00,25.498
2508.20,25.492
2508.40,25.374
2508.60,25.424
2508.80,25.446
2509.00,25.456
2509.20,25.328
2509.40,25.398
2509.60,25.698
2509.80,25.448
2510.00,25.408
2510.20,25.41
2510.40,25.408
2510.60,25.412
2510.80,25.432
2511.00,25.468
2511.20,25.454
2511.40,25.342
2511.60,25.398
2511.80,25.412
2512.00,25.418
2512.20,25.44
2512.40,25.492
2512.60,25.418
2512.80,25.328
2513.00,25.448
2513.20,25.388
2513.40,25.522
2513.60,25.438
2513.80,25.396
2514.00,25.468
2514.20,25.404
2514.40,25.44
2514.60,25.396
2514.80,25.41
2515.00,25.522
2515.20,25.358
2515.40,25.418
2515.60,25.454
2515.80,25.38
2516.00,25.396
2516.20,25.452
2516.40,25.342
2516.60,25.538
2516.80,25.496
2517.00,25.368
2517.20,25.402
2517.40,25.492
2517.60,25.314
2517.80,25.514
2518.00,25.38
2518.20,25.408
2518.40,25.47
2518.60,25.448
2518.80,25.77
2519.00,24.994
2519.20,25.74
2519.40,25.368
2519.60,25.42
2519.80,25.382
2520.00,25.504
2520.20,25.39
2520.40,25.374
2520.60,25.47
2520.80,25.456
2521.00,25.452
2521.20,25.388
2521.40,25.306
2521.60,25.498
2521.80,25.476
2522.00,25.462
2522.20,25.43
2522.40,25.46
2522.60,25.394
2522.80,25.398
2523.00,25.388
2523.20,25.484
2523.40,25.39
2523.60,25.522
2523.80,25.402
2524.00,25.434
2524.20,25.394
2524.40,25.404
2524.60,25.42
2524.80,25.454
2525.00,25.396
2525.20,25.404
2525.40,25.434
2525.60,25.346
2525.80,25.464
2526.00,25.518
2526.20,25.33
2526.40,25.41
2526.60,25.53
2526.80,25.386
2527.00,25.408
2527.20,25.364
2527.40,25.44
2527.60,25.374
2527.80,25.398
2528.00,25.474
2528.20,25.418
2528.40,25.376
2528.60,25.474
2528.80,25.702
2529.00,25.322
2529.20,25.426
2529.40,25.424
2529.60,25.402
2529.80,25.484
2530.00,25.448
2530.20,25.408
2530.40,25.42
2530.60,25.394
2530.80,25.42
2531.00,25.468
2531.20,25.426
2531.40,25.544
2531.60,25.394
2531.80,25.358
2532.00,25.408
2532.20,25.43
2532.40,25.374
2532.60,25.354
2532.80,25.452
2533.00,25.418
2533.20,25.418
2533.40,25.508
2533.60,25.352
2533.80,25.442
2534.00,25.38
2534.20,25.452
2534.40,25.442
2534.60,25.446
2534.80,25.456
2535.00,25.35
2535.20,25.476
2535.40,25.386
2535.60,25.52
2535.80,25.336
2536.00,25.39
2536.20,25.394
2536.40,25.402
2536.60,25.416
2536.80,25.824
2537.00,25.02
2537.20,25.364
2537.40,25.452
2537.60,25.396
2537.80,25.462
2538.00,25.368
2538.20,25.758
2538.40,25.316
2538.60,25.368
2538.80,25.448
2539.00,25.388
2539.20,25.454
2539.40,25.372
2539.60,25.504
2539.80,25.41
2540.00,25.352
2540.20,25.434
2540.40,25.418
2540.60,25.396
2540.80,25.418
2541.00,25.47
2541.20,25.446
2541.40,25.476
2541.60,25.336
2541.80,25.366
2542.00,25.426
2542.20,25.394
2542.40,25.442
2542.60,25.396
2542.80,25.434
2543.00,25.424
2543.20,25.46
2543.40,25.402
2543.60,25.44
2543.80,25.5
2544.00,25.354
2544.20,25.368
2544.40,25.442
2544.60,25.43
2544.80,25.382
2545.00,25.388
2545.20,25.454
2545.40,25.382
2545.60,25.492
2545.80,25.468
2546.00,25.38
2546.20,25.456
2546.40,25.486
2546.60,25.358
2546.80,25.432
2547.00,25.408
2547.20,25.342
2547.40,25.456
2547.60,25.402
2547.80,25.85
2548.00,25.316
2548.20,25.404
2548.40,25.432
2548.60,25.434
2548.80,25.374
2549.00,25.41
2549.20,25.5
2549.40,25.43
2549.60,25.418
2549.80,25.398
2550.00,25.43
2550.20,25.426
2550.40,25.454
2550.60,25.398
2550.80,25.396
2551.00,25.438
2551.20,25.486
2551.40,25.358
2551.60,25.394
2551.80,25.386
2552.00,25.556
2552.20,25.396
2552.40,25.412
2552.60,25.398
2552.80,25.426
2553.00,25.454
2553.20,25.35
2553.40,25.49
2553.60,25.368
2553.80,25.382
2554.00,25.482
2554.20,25.47
2554.40,25.322
2554.60,25.544
2554.80,25.806
2555.00,24.934
2555.20,25.368
2555.40,25.5
2555.60,25.412
2555.80,25.38
2556.00,25.47
2556.20,25.482
2556.40,25.438
2556.60,25.41
2556.80,25.394
2557.00,25.404
2557.20,25.38
2557.40,25.582
2557.60,25.53
2557.80,25.42
2558.00,25.452
2558.20,25.358
2558.40,25.314
2558.60,25.424
2558.80,25.468
2559.00,25.424
2559.20,25.454
2559.40,25.408
2559.60,25.412
2559.80,25.44
2560.00,25.364
2560.20,25.498
2560.40,25.432
2560.60,25.386
2560.80,25.354
2561.00,25.468
2561.20,25.446
2561.40,25.418
2561.60,25.456
2561.80,25.43
2562.00,25.44
2562.20,25.404
2562.40,25.426
2562.60,25.43
2562.80,25.548
2563.00,25.416
2563.20,25.432
2563.40,25.418
2563.60,25.41
2563.80,25.336
2564.00,25.446
2564.20,25.496
2564.40,25.388
2564.60,25.41
2564.80,25.398
2565.00,25.396
2565.20,25.39
2565.40,25.46
2565.60,25.478
2565.80,25.416
2566.00,25.342
2566.20,25.47
2566.40,25.354
2566.60,25.41
2566.80,25.454
2567.00,25.78
2567.20,25.346
2567.40,25.38
2567.60,25.426
2567.80,25.462
2568.00,25.322
2568.20,25.416
2568.40,25.49
2568.60,25.366
2568.80,25.404
2569.00,25.47
2569.20,25.416
2569.40,25.364
2569.60,25.44
2569.80,25.518
2570.00,25.372
2570.20,25.39
2570.40,25.386
2570.60,25.508
2570.80,25.366
2571.00,25.538
2571.20,25.332
2571.40,25.402
2571.60,25.408
2571.80,25.344
2572.00,25.492
2572.20,25.386
2572.40,25.538
2572.60,25.446
2572.80,25.742
2573.00,25.042
2573.20,25.424
2573.40,25.386
2573.60,25.426
2573.80,25.468
2574.00,25.432
