Time (ms),Main Avg Current (mA)
0.00,5.796
0.20,5.776
0.40,5.854
0.60,5.852
0.80,5.752
1.00,5.81
1.20,5.84
1.40,5.832
1.60,5.852
1.80,5.776
2.00,5.848
2.20,5.804
2.40,5.846
2.60,5.808
2.80,5.782
3.00,5.84
3.20,5.918
3.40,5.744
3.60,5.812
3.80,5.804
4.00,5.838
4.20,5.856
4.40,5.81
4.60,5.826
4.80,5.856
5.00,5.796
5.20,5.798
5.40,5.842
5.60,5.804
5.80,5.848
6.00,5.818
6.20,5.808
6.40,5.786
6.60,5.864
6.80,5.846
7.00,5.842
7.20,5.776
7.40,5.852
7.60,5.808
7.80,5.816
8.00,5.84
8.20,5.86
8.40,5.83
8.60,5.816
8.80,5.808
9.00,5.82
9.20,5.816
9.40,5.838
9.60,5.834
9.80,5.846
10.00,5.808
10.20,5.826
10.40,5.802
10.60,5.84
10.80,5.846
11.00,5.776
11.20,5.79
11.40,5.826
11.60,5.854
11.80,5.788
12.00,5.802
12.20,5.864
12.40,5.804
12.60,5.83
12.80,5.846
13.00,5.796
13.20,5.84
13.40,5.824
13.60,5.83
13.80,5.802
14.00,5.854
14.20,5.818
14.40,5.854
14.60,5.764
14.80,5.83
15.00,5.856
15.20,5.75
15.40,5.864
15.60,5.818
15.80,5.824
16.00,5.812
16.20,5.838
16.40,5.824
16.60,5.84
16.80,5.87
17.00,5.824
17.20,5.816
17.40,5.81
17.60,5.824
17.80,5.826
18.00,5.81
18.20,5.798
18.40,5.838
18.60,5.804
18.80,5.832
19.00,5.824
19.20,5.812
19.40,5.83
19.60,5.826
19.80,5.82
20.00,5.818
20.20,5.832
20.40,5.83
20.60,5.79
20.80,5.824
21.00,5.816
21.20,5.92
21.40,5.776
21.60,5.802
21.80,5.852
22.00,5.812
22.20,5.838
22.40,5.816
22.60,5.808
22.80,5.812
23.00,5.824
23.20,5.826
23.40,5.868
23.60,5.804
23.80,5.798
24.00,5.824
24.20,5.846
24.40,5.838
24.60,5.852
24.80,5.808
25.00,5.864
25.20,5.796
25.40,5.838
25.60,5.794
25.80,5.81
26.00,5.818
26.20,5.786
26.40,5.816
26.60,5.796
26.80,5.846
27.00,5.788
27.20,5.936
27.40,5.788
27.60,5.804
27.80,5.838
28.00,5.84
28.20,5.78
28.40,5.84
28.60,5.832
28.80,5.766
29.00,5.834
29.20,5.812
29.40,5.838
29.60,5.812
29.80,5.84
30.00,5.796
30.20,5.856
30.40,5.832
30.60,5.816
30.80,5.842
31.00,5.826
31.20,5.804
31.40,5.81
31.60,5.834
31.80,5.842
32.00,5.776
32.20,5.846
32.40,5.832
32.60,5.826
32.80,5.854
33.00,5.824
33.20,5.776
33.40,5.838
33.60,5.826
33.80,5.84
34.00,5.776
34.20,5.81
34.40,5.826
34.60,5.86
34.80,5.79
35.00,5.81
35.20,5.838
35.40,5.796
35.60,5.818
35.80,5.79
36.00,5.826
36.20,5.882
36.40,5.834
36.60,5.81
36.80,5.786
37.00,5.842
37.20,5.798
37.40,5.826
37.60,5.81
37.80,5.834
38.00,5.81
38.20,5.824
38.40,5.818
38.60,5.782
38.80,5.882
39.00,5.804
39.20,5.934
39.40,5.722
39.60,5.818
39.80,5.81
40.00,5.838
40.20,5.812
40.40,5.846
40.60,5.82
40.80,5.82
41.00,5.824
41.20,5.794
41.40,5.788
41.60,5.838
41.80,5.854
42.00,5.766
42.20,5.802
42.40,5.846
42.60,5.826
42.80,5.826
43.00,5.808
43.20,5.81
43.40,5.824
43.60,5.826
43.80,5.826
44.00,5.86
44.20,5.826
44.40,5.854
44.60,5.796
44.80,5.794
45.00,5.83
45.20,5.816
45.40,5.876
45.60,5.82
45.80,5.832
46.00,5.81
46.20,5.79
46.40,5.804
46.60,5.824
46.80,5.848
47.00,5.802
47.20,5.84
47.40,5.812
47.60,5.816
47.80,5.796
48.00,5.838
48.20,5.82
48.40,5.856
48.60,5.834
48.80,5.796
49.00,5.82
49.20,5.804
49.40,5.854
49.60,5.816
49.80,5.79
50.00,5.798
50.20,5.848
50.40,5.842
50.60,5.81
50.80,5.812
51.00,5.83
51.20,5.834
51.40,5.808
51.60,5.79
51.80,5.842
52.00,5.804
52.20,5.838
52.40,5.834
52.60,5.824
52.80,5.796
53.00,5.83
53.20,5.82
53.40,5.816
53.60,5.856
53.80,5.794
54.00,5.826
54.20,5.812
54.40,5.826
54.60,5.826
54.80,5.78
55.00,5.84
55.20,5.81
55.40,5.82
55.60,5.83
55.80,5.834
56.00,5.816
56.20,5.846
56.40,5.782
56.60,5.84
56.80,5.84
57.00,5.798
57.20,5.942
57.40,5.71
57.60,5.764
57.80,5.868
58.00,5.81
58.20,5.818
58.40,5.794
58.60,5.818
58.80,5.84
59.00,5.81
59.20,5.864
59.40,5.854
59.60,5.802
59.80,5.838
60.00,5.852
60.20,5.82
60.40,5.772
60.60,5.86
60.80,5.798
61.00,5.832
61.20,5.852
61.40,5.838
61.60,5.79
61.80,5.81
62.00,5.854
62.20,5.776
62.40,5.834
62.60,5.804
62.80,5.834
63.00,5.83
63.20,5.824
63.40,5.81
63.60,5.812
63.80,5.826
64.00,5.812
64.20,5.808
64.40,5.832
64.60,5.81
64.80,5.862
65.00,5.824
65.20,5.81
65.40,5.816
65.60,5.798
65.80,5.838
66.00,5.798
66.20,5.82
66.40,5.864
66.60,5.82
66.80,5.81
67.00,5.87
67.20,5.838
67.40,5.754
67.60,5.816
67.80,5.868
68.00,5.804
68.20,5.816
68.40,5.802
68.60,5.824
68.80,5.782
69.00,5.83
69.20,5.824
69.40,5.854
69.60,5.868
69.80,5.816
70.00,5.812
70.20,5.84
70.40,5.824
70.60,5.818
70.80,5.81
71.00,5.86
71.20,5.826
71.40,5.794
71.60,5.804
71.80,5.802
72.00,5.862
72.20,5.79
72.40,5.832
72.60,5.818
72.80,5.846
73.00,5.848
73.20,5.808
73.40,5.846
73.60,5.826
73.80,5.81
74.00,5.83
74.20,5.826
74.40,5.824
74.60,5.842
74.80,5.83
75.00,5.782
75.20,5.942
75.40,5.738
75.60,5.774
75.80,5.876
76.00,5.808
76.20,5.838
76.40,5.838
76.60,5.84
76.80,5.826
77.00,5.834
77.20,5.838
77.40,5.804
77.60,5.81
77.80,5.854
78.00,5.816
78.20,5.824
78.40,5.84
78.60,5.772
78.80,5.846
79.00,5.842
79.20,5.782
79.40,5.83
79.60,5.818
79.80,5.83
80.00,5.84
80.20,5.864
80.40,5.826
80.60,5.75
80.80,5.78
81.00,5.782
81.20,5.874
81.40,5.816
81.60,5.854
81.80,5.84
82.00,5.788
82.20,5.842
82.40,5.812
82.60,5.78
82.80,5.816
83.00,5.798
83.20,5.824
83.40,5.842
83.60,5.852
83.80,5.81
84.00,5.82
84.20,5.81
84.40,5.854
84.60,5.846
84.80,5.838
85.00,5.852
85.20,5.826
85.40,5.79
85.60,5.808
85.80,5.824
86.00,5.834
86.20,5.854
86.40,5.816
86.60,5.804
86.80,5.79
87.00,5.87
87.20,5.802
87.40,5.818
87.60,5.794
87.80,5.838
88.00,5.846
88.20,5.802
88.40,5.812
88.60,5.82
88.80,5.87
89.00,5.798
89.20,5.826
89.40,5.774
89.60,5.804
89.80,5.854
90.00,5.804
90.20,5.818
90.40,5.838
90.60,5.812
90.80,5.812
91.00,5.812
91.20,5.826
91.40,5.82
91.60,5.812
91.80,5.832
92.00,5.81
92.20,5.81
92.40,5.864
92.60,5.824
92.80,5.81
93.00,5.826
93.20,5.906
93.40,5.774
93.60,5.842
93.80,5.818
94.00,5.796
94.20,5.838
94.40,5.826
94.60,5.846
94.80,5.812
95.00,5.816
95.20,5.832
95.40,5.81
95.60,5.86
95.80,5.796
96.00,5.81
96.20,5.808
96.40,5.796
96.60,5.826
96.80,5.852
97.00,5.824
97.20,5.826
97.40,5.816
97.60,5.812
97.80,5.808
98.00,5.846
98.20,5.848
98.40,5.818
98.60,5.786
98.80,5.86
99.00,5.776
99.20,5.83
99.40,5.812
99.60,5.838
99.80,5.788
100.00,5.852
100.20,5.818
100.40,5.816
100.60,5.854
100.80,5.84
101.00,5.83
101.20,5.804
101.40,5.842
101.60,5.826
101.80,5.818
102.00,5.804
102.20,5.864
102.40,5.816
102.60,5.816
102.80,5.832
103.00,5.826
103.20,5.848
103.40,5.776
103.60,5.83
103.80,5.83
104.00,5.764
104.20,5.826
104.40,5.84
104.60,5.826
104.80,5.83
105.00,5.776
105.20,5.826
105.40,5.764
105.60,5.882
105.80,5.82
106.00,5.84
106.20,5.84
106.40,5.802
106.60,5.83
106.80,5.81
107.00,5.82
107.20,5.84
107.40,5.834
107.60,5.868
107.80,5.766
108.00,5.842
108.20,5.816
108.40,5.826
108.60,5.826
108.80,5.842
109.00,5.84
109.20,5.824
109.40,5.832
109.60,5.766
109.80,5.804
110.00,5.856
110.20,5.838
110.40,5.82
110.60,5.804
110.80,5.782
111.00,5.842
111.20,5.958
111.40,5.752
111.60,5.802
111.80,5.788
112.00,5.818
112.20,5.842
112.40,5.862
112.60,5.832
112.80,5.79
113.00,5.834
113.20,5.79
113.40,5.826
113.60,5.854
113.80,5.856
114.00,5.816
114.20,5.824
114.40,5.812
114.60,5.852
114.80,5.798
115.00,5.796
115.20,5.794
115.40,5.838
115.60,5.84
115.80,5.83
116.00,5.782
116.20,5.818
116.40,5.788
116.60,5.854
116.80,5.864
117.00,5.826
117.20,5.818
117.40,5.788
117.60,5.812
117.80,5.826
118.00,5.848
118.20,5.86
118.40,5.808
118.60,5.802
118.80,5.804
119.00,5.82
119.20,5.842
119.40,5.808
119.60,5.812
119.80,5.832
120.00,5.83
120.20,5.82
120.40,5.816
120.60,5.826
120.80,5.834
121.00,5.834
121.20,5.796
121.40,5.86
121.60,5.82
121.80,5.798
122.00,5.818
122.20,5.846
122.40,5.812
122.60,5.826
122.80,5.856
123.00,5.782
123.20,5.83
123.40,5.82
123.60,5.842
123.80,5.804
124.00,5.83
124.20,5.832
124.40,5.804
124.60,5.808
124.80,5.826
125.00,5.826
125.20,5.812
125.40,5.816
125.60,5.862
125.80,5.824
126.00,5.78
126.20,5.786
126.40,5.876
126.60,5.816
126.80,5.834
127.00,5.826
127.20,5.804
127.40,5.84
127.60,5.826
127.80,5.798
128.00,5.84
128.20,5.83
128.40,5.81
128.60,5.802
128.80,5.82
129.00,5.808
129.20,5.92
129.40,5.73
129.60,5.834
129.80,5.824
130.00,5.848
130.20,5.78
130.40,5.816
130.60,5.868
130.80,5.834
131.00,5.79
131.20,5.804
131.40,5.826
131.60,5.848
131.80,5.776
132.00,5.782
132.20,5.824
132.40,5.9
132.60,5.824
132.80,5.796
133.00,5.832
133.20,5.842
133.40,5.84
133.60,5.808
133.80,5.804
134.00,5.864
134.20,5.78
134.40,5.826
134.60,5.846
134.80,5.798
135.00,5.798
135.20,5.788
135.40,5.842
135.60,5.86
135.80,5.864
136.00,5.794
136.20,5.826
136.40,5.796
136.60,5.848
136.80,5.824
137.00,5.834
137.20,5.808
137.40,5.824
137.60,5.812
137.80,5.802
138.00,5.796
138.20,5.862
138.40,5.798
138.60,5.804
138.80,5.834
139.00,5.826
139.20,5.838
139.40,5.798
139.60,5.864
139.80,5.804
140.00,5.834
140.20,5.782
140.40,5.826
140.60,5.882
140.80,5.782
141.00,5.818
141.20,5.832
141.40,5.882
141.60,5.804
141.80,5.826
142.00,5.854
142.20,5.854
142.40,5.802
142.60,5.754
142.80,5.848
143.00,5.782
143.20,5.838
143.40,5.794
143.60,5.838
143.80,5.83
144.00,5.812
144.20,5.788
144.40,5.848
144.60,5.826
144.80,5.842
145.00,5.802
145.20,5.832
145.40,5.818
145.60,5.804
145.80,5.83
146.00,5.834
146.20,5.824
146.40,5.802
146.60,5.838
146.80,5.804
147.00,5.826
147.20,5.884
147.40,5.744
147.60,5.834
147.80,5.794
148.00,5.782
148.20,5.83
148.40,5.84
148.60,5.83
148.80,5.812
149.00,5.846
149.20,5.776
149.40,5.816
149.60,5.826
149.80,5.812
150.00,5.826
150.20,5.826
150.40,5.824
150.60,5.816
150.80,5.786
151.00,5.816
151.20,5.812
151.40,5.856
151.60,5.824
151.80,5.852
152.00,5.82
152.20,5.826
152.40,5.812
152.60,5.834
152.80,5.804
153.00,5.852
153.20,5.786
153.40,5.818
153.60,5.86
153.80,5.798
154.00,5.848
154.20,5.768
154.40,5.84
154.60,5.86
154.80,5.766
155.00,5.856
155.20,5.824
155.40,5.786
155.60,5.816
155.80,5.79
156.00,5.82
156.20,5.852
156.40,5.846
156.60,5.838
156.80,5.79
157.00,5.832
157.20,5.862
157.40,5.846
157.60,5.802
157.80,5.796
158.00,5.832
158.20,5.812
158.40,5.84
158.60,5.834
158.80,5.798
159.00,5.852
159.20,5.766
159.40,5.798
159.60,5.826
159.80,5.834
160.00,5.808
160.20,5.87
160.40,5.824
160.60,5.842
160.80,5.786
161.00,5.81
161.20,5.802
161.40,5.82
161.60,5.856
161.80,5.848
162.00,5.794
162.20,5.826
162.40,5.774
162.60,5.818
162.80,5.876
163.00,5.816
163.20,5.83
163.40,5.848
163.60,5.808
163.80,5.824
164.00,5.82
164.20,5.834
164.40,5.842
164.60,5.854
164.80,5.788
165.00,5.794
165.20,5.93
165.40,5.71
165.60,5.796
165.80,5.842
166.00,5.87
166.20,5.782
166.40,5.802
166.60,5.834
166.80,5.824
167.00,5.84
167.20,5.81
167.40,5.804
167.60,5.794
167.80,5.818
168.00,5.832
168.20,5.818
168.40,5.826
168.60,5.818
168.80,5.848
169.00,5.838
169.20,5.802
169.40,5.788
169.60,5.82
169.80,5.804
170.00,5.838
170.20,5.776
170.40,5.826
170.60,5.854
170.80,5.816
171.00,5.818
171.20,5.84
171.40,5.832
171.60,5.832
171.80,5.852
172.00,5.818
172.20,5.794
172.40,5.826
172.60,5.798
172.80,5.84
173.00,5.808
173.20,5.832
173.40,5.846
173.60,5.818
173.80,5.826
174.00,5.846
174.20,5.79
174.40,5.816
174.60,5.856
174.80,5.848
175.00,5.83
175.20,5.86
175.40,5.818
175.60,5.812
175.80,5.834
176.00,5.794
176.20,5.788
176.40,5.84
176.60,5.82
176.80,5.852
177.00,5.848
177.20,5.824
177.40,5.81
177.60,5.838
177.80,5.812
178.00,5.852
178.20,5.838
178.40,5.808
178.60,5.798
178.80,5.892
179.00,5.79
179.20,5.76
179.40,5.86
179.60,5.794
179.80,5.816
180.00,5.83
180.20,5.856
180.40,5.798
180.60,5.824
180.80,5.796
181.00,5.846
181.20,5.848
181.40,5.826
181.60,5.79
181.80,5.818
182.00,5.854
182.20,5.786
182.40,5.824
182.60,5.826
182.80,5.834
183.00,5.826
183.20,5.892
183.40,5.73
183.60,5.812
183.80,5.794
184.00,5.842
184.20,5.826
184.40,5.838
184.60,5.832
184.80,5.846
185.00,5.846
185.20,5.826
185.40,5.832
185.60,5.812
185.80,5.842
186.00,5.786
186.20,5.808
186.40,5.868
186.60,5.81
186.80,5.774
187.00,5.768
187.20,5.848
187.40,5.838
187.60,5.788
187.80,5.848
188.00,5.842
188.20,5.864
188.40,5.808
188.60,5.798
188.80,5.808
189.00,5.794
189.20,5.826
189.40,5.82
189.60,5.82
189.80,5.842
190.00,5.848
190.20,5.826
190.40,5.796
190.60,5.812
190.80,5.818
191.00,5.826
191.20,5.838
191.40,5.816
191.60,5.816
191.80,5.798
192.00,5.81
192.20,5.83
192.40,5.84
192.60,5.846
192.80,5.834
193.00,5.776
193.20,5.862
193.40,5.798
193.60,5.808
193.80,5.826
194.00,5.812
194.20,5.766
194.40,5.834
194.60,5.842
194.80,5.832
195.00,5.798
195.20,5.842
195.40,5.826
195.60,5.862
195.80,5.768
196.00,5.812
196.20,5.892
196.40,5.794
196.60,5.816
196.80,5.87
197.00,5.794
197.20,5.838
197.40,5.808
197.60,5.79
197.80,5.86
198.00,5.816
198.20,5.834
198.40,5.838
198.60,5.796
198.80,5.83
199.00,5.808
199.20,5.826
199.40,5.808
199.60,5.84
199.80,5.834
200.00,5.808
200.20,5.83
200.40,5.804
200.60,5.818
200.80,5.816
201.00,5.83
201.20,5.918
201.40,5.728
201.60,5.852
201.80,5.794
202.00,5.832
202.20,5.812
202.40,5.81
202.60,5.808
202.80,5.83
203.00,5.826
203.20,5.83
203.40,5.81
203.60,5.876
203.80,5.808
204.00,5.816
204.20,5.79
204.40,5.796
204.60,5.83
204.80,5.84
205.00,5.87
205.20,5.834
205.40,5.768
205.60,5.832
205.80,5.794
206.00,5.842
206.20,5.758
206.40,5.874
206.60,5.804
206.80,5.862
207.00,5.776
207.20,5.812
207.40,5.846
207.60,5.816
207.80,5.802
208.00,5.826
208.20,5.824
208.40,5.804
208.60,5.874
208.80,5.848
209.00,5.794
209.20,5.848
209.40,5.818
209.60,5.788
209.80,5.81
210.00,5.834
210.20,5.824
210.40,5.838
210.60,5.804
210.80,5.798
211.00,5.786
211.20,5.838
211.40,5.832
211.60,5.804
211.80,5.838
212.00,5.782
212.20,5.818
212.40,5.826
212.60,5.856
212.80,5.82
213.00,5.848
213.20,5.804
213.40,5.82
213.60,5.856
213.80,5.824
214.00,5.812
214.20,5.804
214.40,5.846
214.60,5.852
214.80,5.804
215.00,5.826
215.20,5.83
215.40,5.78
215.60,5.802
215.80,5.81
216.00,5.812
216.20,5.834
216.40,5.838
216.60,5.804
216.80,5.832
217.00,5.824
217.20,5.852
217.40,5.848
217.60,5.818
217.80,5.808
218.00,5.804
218.20,5.854
218.40,5.824
218.60,5.808
218.80,5.854
219.00,5.838
219.20,5.884
219.40,5.714
219.60,5.84
219.80,5.776
220.00,5.81
220.20,5.842
220.40,5.818
220.60,5.794
220.80,5.826
221.00,5.86
221.20,5.782
221.40,5.832
221.60,5.826
221.80,5.82
222.00,5.846
222.20,5.796
222.40,5.826
222.60,5.82
222.80,5.818
223.00,5.812
223.20,5.848
223.40,5.812
223.60,5.816
223.80,5.786
224.00,5.874
224.20,5.824
224.40,5.824
224.60,5.79
224.80,5.846
225.00,5.812
225.20,5.838
225.40,5.798
225.60,5.826
225.80,5.81
226.00,5.776
226.20,5.86
226.40,5.86
226.60,5.81
226.80,5.782
227.00,5.816
227.20,5.87
227.40,5.774
227.60,5.81
227.80,5.84
228.00,5.838
228.20,5.804
228.40,5.808
228.60,5.884
228.80,5.81
229.00,5.802
229.20,5.846
229.40,5.83
229.60,5.81
229.80,5.83
230.00,5.798
230.20,5.848
230.40,5.818
230.60,5.86
230.80,5.82
231.00,5.854
231.20,5.804
231.40,5.804
231.60,5.862
231.80,5.794
232.00,5.826
232.20,5.772
232.40,5.848
232.60,5.83
232.80,5.798
233.00,5.846
233.20,5.804
233.40,5.864
233.60,5.802
233.80,5.816
234.00,5.848
234.20,5.75
234.40,5.838
234.60,5.834
234.80,5.798
235.00,5.824
235.20,5.826
235.40,5.834
235.60,5.846
235.80,5.812
236.00,5.81
236.20,5.782
236.40,5.84
236.60,5.776
236.80,5.852
237.00,5.79
237.20,5.86
237.40,5.714
237.60,5.846
237.80,5.812
238.00,5.826
238.20,5.81
238.40,5.856
238.60,5.812
238.80,5.832
239.00,5.824
239.20,5.808
239.40,5.818
239.60,5.83
239.80,5.796
240.00,5.83
240.20,5.854
240.40,5.798
240.60,5.842
240.80,5.826
241.00,5.82
241.20,5.808
241.40,5.81
241.60,5.848
241.80,5.87
242.00,5.802
242.20,5.782
242.40,5.856
242.60,5.79
242.80,5.826
243.00,5.816
243.20,5.854
243.40,5.854
243.60,5.816
243.80,5.832
244.00,5.782
244.20,5.816
244.40,5.826
244.60,5.89
244.80,5.796
245.00,5.83
245.20,5.796
245.40,5.84
245.60,5.852
245.80,5.802
246.00,5.824
246.20,5.812
246.40,5.834
246.60,5.832
246.80,5.89
247.00,5.838
247.20,5.81
247.40,5.804
247.60,5.84
247.80,5.856
248.00,5.782
248.20,5.826
248.40,5.838
248.60,5.838
248.80,5.796
249.00,5.832
249.20,5.818
249.40,5.786
249.60,5.802
249.80,5.83
250.00,5.856
250.20,5.782
250.40,5.826
250.60,5.804
250.80,5.812
251.00,5.878
251.20,5.834
251.40,5.808
251.60,5.82
251.80,5.848
252.00,5.782
252.20,5.816
252.40,5.838
252.60,5.82
252.80,5.826
253.00,5.826
253.20,5.802
253.40,5.852
253.60,5.812
253.80,5.802
254.00,5.826
254.20,5.804
254.40,5.804
254.60,5.83
254.80,5.826
255.00,5.838
255.20,5.884
255.40,5.794
255.60,5.754
255.80,5.82
256.00,5.83
256.20,5.812
256.40,5.83
256.60,5.818
256.80,5.848
257.00,5.812
257.20,5.82
257.40,5.816
257.60,5.808
257.80,5.856
258.00,5.852
258.20,5.78
258.40,5.83
258.60,5.848
258.80,5.816
259.00,5.798
259.20,5.826
259.40,5.83
259.60,5.808
259.80,5.852
260.00,5.804
260.20,5.802
260.40,5.834
260.60,5.808
260.80,5.796
261.00,5.876
261.20,5.796
261.40,5.834
261.60,5.798
261.80,5.812
262.00,5.846
262.20,5.83
262.40,5.802
262.60,5.798
262.80,5.834
263.00,5.846
263.20,5.862
263.40,5.832
263.60,5.81
263.80,5.804
264.00,5.782
264.20,5.86
264.40,5.816
264.60,5.808
264.80,5.782
265.00,5.886
265.20,5.83
265.40,5.82
265.60,5.808
265.80,5.796
266.00,5.826
266.20,5.81
266.40,5.83
266.60,5.818
266.80,5.818
267.00,5.854
267.20,5.83
267.40,5.796
267.60,5.854
267.80,5.848
268.00,5.772
268.20,5.862
268.40,5.802
268.60,5.782
268.80,5.84
269.00,5.838
269.20,5.808
269.40,5.826
269.60,5.856
269.80,5.842
270.00,5.838
270.20,5.798
270.40,5.832
270.60,5.798
270.80,5.816
271.00,5.82
271.20,5.816
271.40,5.776
271.60,5.84
271.80,5.842
272.00,5.832
272.20,5.82
272.40,5.824
272.60,5.832
272.80,5.804
273.00,5.86
273.20,5.922
273.40,5.706
273.60,5.79
273.80,5.842
274.00,5.824
274.20,5.798
274.40,5.826
274.60,5.854
274.80,5.79
275.00,5.832
275.20,5.834
275.40,5.834
275.60,5.832
275.80,5.826
276.00,5.782
276.20,5.834
276.40,5.82
276.60,5.852
276.80,5.826
277.00,5.798
277.20,5.848
277.40,5.83
277.60,5.834
277.80,5.764
278.00,5.818
278.20,5.846
278.40,5.842
278.60,5.82
278.80,5.81
279.00,5.798
279.20,5.818
279.40,5.826
279.60,5.838
279.80,5.81
280.00,5.82
280.20,5.76
280.40,5.82
280.60,5.852
280.80,5.852
281.00,5.81
281.20,5.826
281.40,5.78
281.60,5.808
281.80,5.824
282.00,5.824
282.20,5.802
282.40,5.86
282.60,5.852
282.80,5.864
283.00,5.79
283.20,5.832
283.40,5.796
283.60,5.788
283.80,5.83
284.00,5.802
284.20,5.832
284.40,5.82
284.60,5.826
284.80,5.84
285.00,5.776
285.20,5.84
285.40,5.824
285.60,5.832
285.80,5.842
286.00,5.808
286.20,5.846
286.40,5.838
286.60,5.798
286.80,5.798
287.00,5.826
287.20,5.838
287.40,5.78
287.60,5.838
287.80,5.788
288.00,5.82
288.20,5.79
288.40,5.868
288.60,5.862
288.80,5.816
289.00,5.848
289.20,5.826
289.40,5.812
289.60,5.782
289.80,5.868
290.00,5.82
290.20,5.79
290.40,5.852
290.60,5.796
290.80,5.846
291.20,5.782
291.40,5.814
291.60,5.806
291.80,5.826
292.00,5.85
292.20,5.828
292.40,5.79
292.60,5.854
292.80,5.796
293.00,5.814
293.20,5.862
293.40,5.796
293.60,5.766
293.80,5.82
294.00,5.88
294.20,5.822
294.40,5.856
294.60,5.792
294.80,5.828
295.00,5.834
295.20,5.842
295.40,5.836
295.60,5.804
295.80,5.806
296.00,5.842
296.20,5.804
296.40,5.766
296.60,5.8
296.80,5.88
297.00,5.826
297.20,5.848
297.40,5.834
297.60,5.82
297.80,5.844
298.00,5.822
298.20,5.84
298.40,5.814
298.60,5.834
298.80,5.822
299.00,5.804
299.20,5.806
299.40,5.778
299.60,5.818
299.80,5.832
300.00,5.858
300.20,5.834
300.40,5.792
300.60,5.844
300.80,5.788
301.00,5.84
301.20,5.826
301.40,5.822
301.60,5.81
301.80,5.812
302.00,5.826
302.20,5.796
302.40,5.818
302.60,5.828
302.80,5.876
303.00,5.788
303.20,5.806
303.40,5.834
303.60,5.854
303.80,5.82
304.00,5.822
304.20,5.814
304.40,5.812
304.60,5.782
304.80,5.862
305.00,5.856
305.20,5.842
305.40,5.814
305.60,5.826
305.80,5.814
306.00,5.82
306.20,5.826
306.40,5.88
306.60,5.76
306.80,5.784
307.00,5.888
307.20,5.812
307.40,5.806
307.60,5.828
307.80,5.842
308.00,5.828
308.20,5.82
308.40,5.844
308.60,5.82
308.80,5.782
309.00,5.842
309.20,5.854
309.40,5.832
309.60,5.832
309.80,5.832
310.00,5.814
310.20,5.854
310.40,5.796
310.60,5.864
310.80,5.79
311.00,5.82
311.20,5.836
311.40,5.806
311.60,5.812
311.80,5.834
312.00,5.844
312.20,5.792
312.40,5.844
312.60,5.798
312.80,5.814
313.00,5.82
313.20,5.804
313.40,5.858
313.60,5.826
313.80,5.776
314.00,5.834
314.20,5.844
314.40,5.832
314.60,5.776
314.80,5.832
315.00,5.812
315.20,5.826
315.40,5.862
315.60,5.796
315.80,5.826
316.00,5.82
316.20,5.822
316.40,5.806
316.60,5.85
316.80,5.84
317.00,5.8
317.20,5.826
317.40,5.826
317.60,5.848
317.80,5.828
318.00,5.782
318.20,5.798
318.40,5.864
318.60,5.782
318.80,5.832
319.00,5.776
319.20,5.82
319.40,5.858
319.60,5.812
319.80,5.796
320.00,5.804
320.20,5.812
320.40,5.826
320.60,5.8
320.80,5.828
321.00,5.826
321.20,5.854
321.40,5.82
321.60,5.826
321.80,5.836
322.00,5.782
322.20,5.842
322.40,5.84
322.60,5.798
322.80,5.79
323.00,5.804
323.20,5.812
323.40,5.856
323.60,5.834
323.80,5.848
324.00,5.79
324.20,5.774
324.40,5.914
324.60,5.748
324.80,5.864
325.00,5.834
325.20,5.814
325.40,5.81
325.60,5.806
325.80,5.832
326.00,5.84
326.20,5.812
326.40,5.796
326.60,5.854
326.80,5.848
327.00,5.82
327.20,5.84
327.40,5.812
327.60,5.834
327.80,5.834
328.00,5.834
328.20,5.81
328.40,5.814
328.60,5.818
328.80,5.826
329.00,5.788
329.20,5.81
329.40,5.832
329.60,5.798
329.80,5.796
330.00,5.872
330.20,5.812
330.40,5.856
330.60,5.822
330.80,5.812
331.00,5.812
331.20,5.798
331.40,5.834
331.60,5.826
331.80,5.85
332.00,5.754
332.20,5.84
332.40,5.782
332.60,5.792
332.80,5.858
333.00,5.81
333.20,5.842
333.40,5.806
333.60,5.828
333.80,5.826
334.00,5.812
334.20,5.792
334.40,5.828
334.60,5.832
334.80,5.782
335.00,5.842
335.20,5.842
335.40,5.79
335.60,5.826
335.80,5.842
336.00,5.778
336.20,5.8
336.40,5.844
336.60,5.834
336.80,5.818
337.00,5.82
337.20,5.814
337.40,5.81
337.60,5.836
337.80,5.81
338.00,5.856
338.20,5.84
338.40,5.8
338.60,5.854
338.80,5.788
339.00,5.806
339.20,5.858
339.40,5.806
339.60,5.818
339.80,5.862
340.00,5.806
340.20,5.836
340.40,5.814
340.60,5.812
340.80,5.798
341.00,5.8
341.20,5.854
341.40,5.798
341.60,5.82
341.80,5.842
342.00,5.8
342.20,5.84
342.40,5.87
342.60,5.77
342.80,5.774
343.00,5.826
343.20,5.828
343.40,5.814
343.60,5.864
343.80,5.826
344.00,5.804
344.20,5.798
344.40,5.798
344.60,5.826
344.80,5.834
345.00,5.84
345.20,5.872
345.40,5.822
345.60,5.826
345.80,5.762
346.00,5.834
346.20,5.834
346.40,5.862
346.60,5.782
346.80,5.834
347.00,5.81
347.20,5.822
347.40,5.856
347.60,5.804
347.80,5.804
348.00,5.81
348.20,5.844
348.40,5.822
348.60,5.826
348.80,5.756
349.00,5.812
349.20,5.856
349.40,5.778
349.60,5.826
349.80,5.842
350.00,5.792
350.20,5.79
350.40,5.84
350.60,5.866
350.80,5.792
351.00,5.836
351.20,5.84
351.40,5.79
351.60,5.804
351.80,5.878
352.00,5.832
352.20,5.822
352.40,5.858
352.60,5.82
352.80,5.82
353.00,5.806
353.20,5.778
353.40,5.826
353.60,5.844
353.80,5.81
354.00,5.812
354.20,5.82
354.40,5.84
354.60,5.826
354.80,5.828
355.00,5.826
355.20,5.792
355.40,5.834
355.60,5.812
355.80,5.82
356.00,5.826
356.20,5.82
356.40,5.798
356.60,5.82
356.80,5.82
357.00,5.822
357.20,5.832
357.40,5.796
357.60,5.826
357.80,5.864
358.00,5.8
358.20,5.796
358.40,5.848
358.60,5.818
358.80,5.832
359.00,5.84
359.20,5.842
359.40,5.812
359.60,5.822
359.80,5.82
360.00,5.85
360.20,5.812
360.40,5.92
360.60,5.704
360.80,5.826
361.00,5.848
361.20,5.82
361.40,5.866
361.60,5.792
361.80,5.768
362.00,5.844
362.20,5.806
362.40,5.806
362.60,5.832
362.80,5.818
363.00,5.832
363.20,5.826
363.40,5.8
363.60,5.862
363.80,5.796
364.00,5.826
364.20,5.812
364.40,5.876
364.60,5.826
364.80,5.822
365.00,5.818
365.20,5.826
365.40,5.818
365.60,5.81
365.80,5.842
366.00,5.796
366.20,5.814
366.40,5.826
366.60,5.854
366.80,5.814
367.00,5.788
367.20,5.826
367.40,5.842
367.60,5.798
367.80,5.822
368.00,5.792
368.20,5.82
368.40,5.822
368.60,5.804
368.80,5.842
369.00,5.834
369.20,5.856
369.40,5.778
369.60,5.828
369.80,5.886
370.00,5.81
370.20,5.848
370.40,5.79
370.60,5.828
370.80,5.854
371.00,5.782
371.20,5.806
371.40,5.902
371.60,5.782
371.80,5.806
372.00,5.826
372.20,5.818
372.40,5.826
372.60,5.842
372.80,5.834
373.00,5.826
373.20,5.804
373.40,5.812
373.60,5.848
373.80,5.832
374.00,5.828
374.20,5.836
374.40,5.828
374.60,5.814
374.80,5.84
375.00,5.834
375.20,5.782
375.40,5.82
375.60,5.814
375.80,5.87
376.00,5.792
376.20,5.828
376.40,5.842
376.60,5.828
376.80,5.804
377.00,5.798
377.20,5.834
377.40,5.81
377.60,5.836
377.80,5.826
378.00,5.784
378.20,5.81
378.40,5.916
378.60,5.796
378.80,5.82
379.00,5.866
379.20,5.81
379.40,5.812
379.60,5.792
379.80,5.87
380.00,5.788
380.20,5.81
380.40,5.87
380.60,5.828
380.80,5.792
381.00,5.782
381.20,5.844
381.40,5.864
381.60,5.814
381.80,5.806
382.00,5.806
382.20,5.828
382.40,5.82
382.60,5.804
382.80,5.796
383.00,5.864
383.20,5.822
383.40,5.812
383.60,5.826
383.80,5.834
384.00,5.832
384.20,5.812
384.40,5.804
384.60,5.834
384.80,5.8
385.00,5.818
385.20,5.826
385.40,5.784
385.60,5.858
385.80,5.822
386.00,5.84
386.20,5.776
386.40,5.792
386.60,5.836
386.80,5.788
387.00,5.822
387.20,5.856
387.40,5.858
387.60,5.762
387.80,5.814
388.00,5.826
388.20,5.856
388.40,5.834
388.60,5.806
388.80,5.82
389.00,5.804
389.20,5.866
389.40,5.782
389.60,5.796
389.80,5.892
390.00,5.848
390.20,5.798
390.40,5.828
390.60,5.826
390.80,5.79
391.00,5.866
391.20,5.822
391.40,5.822
391.60,5.804
391.80,5.832
392.00,5.81
392.20,5.826
392.40,5.818
392.60,5.844
392.80,5.822
393.00,5.854
393.20,5.81
393.40,5.828
393.60,5.796
393.80,5.834
394.00,5.834
394.20,5.818
394.40,5.832
394.60,5.79
394.80,5.858
395.00,5.832
395.20,5.81
395.40,5.834
395.60,5.81
395.80,5.804
396.00,5.812
396.20,5.812
396.40,5.96
396.60,5.7
396.80,5.796
397.00,5.856
397.20,5.8
397.40,5.842
397.60,5.814
397.80,5.814
398.00,5.804
398.20,5.854
398.40,5.844
398.60,5.858
398.80,5.836
399.00,5.804
399.20,5.84
399.40,5.804
399.60,5.798
399.80,5.82
400.00,5.834
400.20,5.848
400.40,5.844
400.60,5.804
400.80,5.812
401.00,5.806
401.20,5.848
401.40,5.832
401.60,5.832
401.80,5.828
402.00,5.834
402.20,5.79
402.40,5.8
402.60,5.848
402.80,5.822
403.00,5.792
403.20,5.818
403.40,5.84
403.60,5.804
403.80,5.8
404.00,5.812
404.20,5.85
404.40,5.81
404.60,5.814
404.80,5.82
405.00,5.854
405.20,5.818
405.40,5.87
405.60,5.836
405.80,5.804
406.00,5.834
406.20,5.798
406.40,5.822
406.60,5.844
406.80,5.792
407.00,5.828
407.20,5.832
407.40,5.804
407.60,5.842
407.80,5.842
408.00,5.818
408.20,5.822
408.40,5.848
408.60,5.828
408.80,5.798
409.00,5.828
409.20,5.82
409.40,5.828
409.60,5.836
409.80,5.834
410.00,5.792
410.20,5.848
410.40,5.848
410.60,5.82
410.80,5.848
411.00,5.854
411.20,5.82
411.40,5.798
411.60,5.834
411.80,5.79
412.00,5.804
412.20,5.872
412.40,5.836
412.60,5.812
412.80,5.826
413.00,5.832
413.20,5.796
413.40,5.806
413.60,5.842
413.80,5.8
414.00,5.822
414.20,5.784
414.40,5.942
414.60,5.782
414.80,5.844
415.00,5.804
415.20,5.822
415.40,5.826
415.60,5.858
415.80,5.826
416.00,5.818
416.20,5.784
416.40,5.806
416.60,5.844
416.80,5.814
417.00,5.822
417.20,5.79
417.40,5.842
417.60,5.832
417.80,5.82
418.00,5.848
418.20,5.814
418.40,5.82
418.60,5.804
418.80,5.842
419.00,5.834
419.20,5.854
419.40,5.768
419.60,5.87
419.80,5.796
420.00,5.848
420.20,5.842
420.40,5.8
420.60,5.854
420.80,5.788
421.00,5.818
421.20,5.792
421.40,5.87
421.60,5.848
421.80,5.792
422.00,5.842
422.20,5.834
422.40,5.814
422.60,5.806
422.80,5.854
423.00,5.828
423.20,5.776
423.40,5.836
423.60,5.826
423.80,5.826
424.00,5.848
424.20,5.82
424.40,5.832
424.60,5.85
424.80,5.77
425.00,5.798
425.20,5.844
425.40,5.836
425.60,5.814
425.80,5.806
426.00,5.828
426.20,5.826
426.40,5.822
426.60,5.84
426.80,5.826
427.00,5.826
427.20,5.858
427.40,5.782
427.60,5.8
427.80,5.886
428.00,5.812
428.20,5.822
428.40,5.836
428.60,5.798
428.80,5.85
429.00,5.8
429.20,5.804
429.40,5.814
429.60,5.832
429.80,5.84
430.00,5.832
430.20,5.818
430.40,5.832
430.60,5.804
430.80,5.798
431.00,5.826
431.20,5.812
431.40,5.82
431.60,5.844
431.80,5.796
432.00,5.844
432.20,5.828
432.40,5.924
432.60,5.776
432.80,5.77
433.00,5.826
433.20,5.796
433.40,5.828
433.60,5.788
433.80,5.85
434.00,5.834
434.20,5.87
434.40,5.85
434.60,5.768
434.80,5.796
435.00,5.826
435.20,5.826
435.40,5.818
435.60,5.778
435.80,5.844
436.00,5.818
436.20,5.806
436.40,5.842
436.60,5.862
436.80,5.784
437.00,5.812
437.20,5.814
437.40,5.848
437.60,5.826
437.80,5.804
438.00,5.84
438.20,5.822
438.40,5.854
438.60,5.814
438.80,5.848
439.00,5.806
439.20,5.828
439.40,5.798
439.60,5.84
439.80,5.84
440.00,5.818
440.20,5.85
440.40,5.77
440.60,5.848
440.80,5.856
441.00,5.798
441.20,5.822
441.40,5.814
441.60,5.836
441.80,5.804
442.00,5.826
442.20,5.8
442.40,5.798
442.60,5.848
442.80,5.826
443.00,5.84
443.20,5.818
443.40,5.792
443.60,5.842
443.80,5.82
444.00,5.856
444.20,5.81
444.40,5.826
444.60,5.862
444.80,5.784
445.00,5.79
445.20,5.844
445.40,5.828
445.60,5.848
445.80,5.788
446.00,5.844
446.20,5.814
446.40,5.834
446.60,5.818
446.80,5.842
447.00,5.812
447.20,5.832
447.40,5.828
447.60,5.776
447.80,5.836
448.00,5.884
448.20,5.8
448.40,5.836
448.60,5.822
448.80,5.84
449.00,5.832
449.20,5.792
449.40,5.84
449.60,5.812
449.80,5.826
450.00,5.798
450.20,5.834
450.40,5.902
450.60,5.74
450.80,5.828
451.00,5.804
451.20,5.796
451.40,5.792
451.60,5.832
451.80,5.842
452.00,5.818
452.20,5.81
452.40,5.834
452.60,5.834
452.80,5.844
453.00,5.826
453.20,5.778
453.40,5.822
453.60,5.858
453.80,5.82
454.00,5.832
454.20,5.872
454.40,5.776
454.60,5.848
454.80,5.798
455.00,5.812
455.20,5.858
455.40,5.822
455.60,5.826
455.80,5.826
456.00,5.778
456.20,5.818
456.40,5.822
456.60,5.84
456.80,5.848
457.00,5.804
457.20,5.76
457.40,5.776
457.60,5.866
457.80,5.826
458.00,5.834
458.20,5.898
458.40,5.812
458.60,5.804
458.80,5.77
459.00,5.854
459.20,5.848
459.40,5.85
459.60,5.832
459.80,5.836
460.00,5.876
460.20,5.782
460.40,5.826
460.60,5.828
460.80,5.826
461.00,5.844
461.20,5.8
461.40,5.834
461.60,5.792
461.80,5.844
462.00,5.81
462.20,5.792
462.40,5.848
462.60,5.848
462.80,5.822
463.00,5.798
463.20,5.826
463.40,5.862
463.60,5.79
463.80,5.82
464.00,5.82
464.20,5.826
464.40,5.822
464.60,5.856
464.80,5.848
465.00,5.822
465.20,5.79
465.40,5.796
465.60,5.812
465.80,5.842
466.00,5.822
466.20,5.908
466.40,5.804
466.60,5.806
466.80,5.814
467.00,5.82
467.20,5.804
467.40,5.85
467.60,5.796
467.80,5.842
468.00,5.826
468.20,5.812
468.40,5.864
468.60,5.754
468.80,5.836
469.00,5.842
469.20,5.804
469.40,5.822
469.60,5.832
469.80,5.826
470.00,5.79
470.20,5.856
470.40,5.818
470.60,5.812
470.80,5.806
471.00,5.856
471.20,5.826
471.40,5.792
471.60,5.834
471.80,5.826
472.00,5.812
472.20,5.806
472.40,5.832
472.60,5.854
472.80,5.828
473.00,5.798
473.20,5.844
473.40,5.82
473.60,5.792
473.80,5.81
474.00,5.826
474.20,5.834
474.40,5.82
474.60,5.792
474.80,5.84
475.00,5.878
475.20,5.77
475.40,5.826
475.60,5.828
475.80,5.814
476.00,5.798
476.20,5.858
476.40,5.814
476.60,5.818
476.80,5.828
477.00,5.818
477.20,5.856
477.40,5.854
477.60,5.8
477.80,5.82
478.00,5.81
478.20,5.798
478.40,5.836
478.60,5.818
478.80,5.804
479.00,5.81
479.20,5.844
479.40,5.878
479.60,5.84
479.80,5.844
480.00,5.798
480.20,5.814
480.40,5.85
480.60,5.822
480.80,5.818
481.00,5.806
481.20,5.828
481.40,5.798
481.60,5.864
481.80,5.812
482.00,5.848
482.20,5.836
482.40,5.85
482.60,5.818
482.80,5.806
483.00,5.812
483.20,5.826
483.40,5.798
483.60,5.826
483.80,5.826
484.00,5.806
484.20,5.87
484.40,5.844
484.60,5.81
484.80,5.822
485.00,5.82
485.20,5.8
485.40,5.77
485.60,5.84
485.80,5.84
486.00,5.832
486.20,5.82
486.40,5.916
486.60,5.77
486.80,5.804
487.00,5.784
487.20,5.82
487.40,5.826
487.60,5.826
487.80,5.812
488.00,5.822
488.20,5.81
488.40,5.79
488.60,5.806
488.80,5.858
489.00,5.806
489.20,5.804
489.40,5.856
489.60,5.836
489.80,5.828
490.00,5.82
490.20,5.782
490.40,5.856
490.60,5.826
490.80,5.812
491.00,5.842
491.20,5.796
491.40,5.828
491.60,5.798
491.80,5.812
492.00,5.886
492.20,5.782
492.40,5.85
492.60,5.84
492.80,5.834
493.00,5.826
493.20,5.792
493.40,5.818
493.60,5.782
493.80,5.864
494.00,5.842
494.20,5.814
494.40,5.806
494.60,5.842
494.80,5.766
495.00,5.834
495.20,5.836
495.40,5.818
495.60,5.798
495.80,5.842
496.00,5.822
496.20,5.798
496.40,5.826
496.60,5.84
496.80,5.812
497.00,5.848
497.20,5.836
497.40,5.81
497.60,5.798
497.80,5.858
498.00,5.784
498.20,5.848
498.40,5.84
498.60,5.778
498.80,5.856
499.00,5.8
499.20,5.822
499.40,5.788
499.60,5.872
499.80,5.842
500.00,5.822
500.20,5.798
500.40,5.798
500.60,5.84
500.80,5.818
501.00,5.848
501.20,5.81
501.40,5.804
501.60,5.834
501.80,5.826
502.00,5.864
502.20,5.778
502.40,5.832
502.60,5.842
502.80,5.814
503.00,5.826
503.20,5.848
503.40,5.77
503.60,5.84
503.80,5.8
504.00,5.848
504.20,5.834
504.40,5.878
504.60,5.724
504.80,5.828
505.00,5.862
505.20,5.856
505.40,5.798
505.60,5.818
505.80,5.8
506.00,5.832
506.20,5.822
506.40,5.828
506.60,5.864
506.80,5.812
507.00,5.826
507.20,5.848
507.40,5.832
507.60,5.866
507.80,5.82
508.00,5.84
508.20,5.806
508.40,5.784
508.60,5.814
508.80,5.814
509.00,5.84
509.20,5.876
509.40,5.826
509.60,5.834
509.80,5.828
510.00,5.768
510.20,5.832
510.40,5.858
510.60,5.782
510.80,5.826
511.00,5.832
511.20,5.79
511.40,5.832
511.60,5.806
511.80,5.844
512.00,5.8
512.20,5.856
512.40,5.854
512.60,5.806
512.80,5.836
513.00,5.798
513.20,5.814
513.40,5.85
513.60,5.804
513.80,5.81
514.00,5.834
514.20,5.836
514.40,5.812
514.60,5.826
514.80,5.796
515.00,5.826
515.20,5.834
515.40,5.826
515.60,5.798
515.80,5.826
516.00,5.862
516.20,5.782
516.40,5.81
516.60,5.888
516.80,5.806
517.00,5.826
517.20,5.798
517.40,5.88
517.60,5.81
517.80,5.77
518.00,5.812
518.20,5.814
518.40,5.84
518.60,5.842
518.80,5.788
519.00,5.836
519.20,5.812
519.40,5.77
519.60,5.85
519.80,5.782
520.00,5.834
520.20,5.87
520.40,5.788
520.60,5.804
520.80,5.812
521.00,5.856
521.20,5.832
521.40,5.82
521.60,5.85
521.80,5.82
522.00,5.866
522.20,5.77
522.40,5.938
522.60,5.752
522.80,5.756
523.00,5.864
523.20,5.876
523.40,5.796
523.60,5.84
523.80,5.818
524.00,5.844
524.20,5.784
524.40,5.832
524.60,5.858
524.80,5.804
525.00,5.792
525.20,5.828
525.40,5.822
525.60,5.79
525.80,5.88
526.00,5.836
526.20,5.82
526.40,5.84
526.60,5.876
526.80,5.798
527.00,5.834
527.20,5.806
527.40,5.858
527.60,5.834
527.80,5.826
528.00,5.826
528.20,5.79
528.40,5.85
528.60,5.832
528.80,5.778
529.00,5.832
529.20,5.792
529.40,5.842
529.60,5.798
529.80,5.804
530.00,5.87
530.20,5.804
530.40,5.832
530.60,5.766
530.80,5.848
531.00,5.862
531.20,5.804
531.40,5.81
531.60,5.818
531.80,5.842
532.00,5.842
532.20,5.788
532.40,5.832
532.60,5.844
532.80,5.832
533.00,5.8
533.20,5.804
533.40,5.84
533.60,5.798
533.80,5.754
534.00,5.844
534.20,5.876
534.40,5.834
534.60,5.834
534.80,5.806
535.00,5.834
535.20,5.82
535.40,5.798
535.60,5.84
535.80,5.812
536.00,5.828
536.20,5.826
536.40,5.792
536.60,5.84
536.80,5.82
537.00,5.792
537.20,5.85
537.40,5.844
537.60,5.804
537.80,5.858
538.00,5.812
538.20,5.792
538.40,5.814
538.60,5.822
538.80,5.85
539.00,5.826
539.20,5.818
539.40,5.818
539.60,5.876
539.80,5.784
540.00,5.8
540.20,5.87
540.40,5.924
540.60,5.766
540.80,5.81
541.00,5.788
541.20,5.872
541.40,5.822
541.60,5.812
541.80,5.842
542.00,5.81
542.20,5.834
542.40,5.798
542.60,5.828
542.80,5.756
543.00,5.834
543.20,5.8
543.40,5.866
543.60,5.842
543.80,5.862
544.00,5.812
544.20,5.796
544.40,5.814
544.60,5.818
544.80,5.82
545.00,5.834
545.20,5.826
545.40,5.826
545.60,5.798
545.80,5.826
546.00,5.826
546.20,5.828
546.40,5.792
546.60,5.792
546.80,5.81
547.00,5.864
547.20,5.826
547.40,5.814
547.60,5.818
547.80,5.828
548.00,5.834
548.20,5.804
548.40,5.818
548.60,5.832
548.80,5.826
549.00,5.814
549.20,5.848
549.40,5.818
549.60,5.834
549.80,5.822
550.00,5.784
550.20,5.81
550.40,5.806
550.60,5.842
550.80,5.858
551.00,5.804
551.20,5.834
551.40,5.862
551.60,5.796
551.80,5.826
552.00,5.854
552.20,5.774
552.40,5.876
552.60,5.814
552.80,5.782
553.00,5.814
553.20,5.85
553.40,5.792
553.60,5.812
553.80,5.806
554.00,5.85
554.20,5.798
554.40,5.844
554.60,5.84
554.80,5.84
555.00,5.84
555.20,5.826
555.40,5.79
555.60,5.848
555.80,5.806
556.00,5.826
556.20,5.796
556.40,5.812
556.60,5.826
556.80,5.822
557.00,5.822
557.20,5.886
557.40,5.828
557.60,5.856
557.80,5.806
558.00,5.812
558.20,5.826
558.40,5.958
558.60,5.7
558.80,5.776
559.00,5.844
559.20,5.814
559.40,5.8
559.60,5.866
559.80,5.814
560.00,5.818
560.20,5.826
560.40,5.828
560.60,5.8
560.80,5.856
561.00,5.822
561.20,5.844
561.40,5.782
561.60,5.834
561.80,5.84
562.00,5.796
562.20,5.84
562.40,5.812
562.60,5.826
562.80,5.848
563.00,5.85
563.20,5.806
563.40,5.814
563.60,5.818
563.80,5.81
564.00,5.822
564.20,5.8
564.40,5.798
564.60,5.854
564.80,5.788
565.00,5.832
565.20,5.864
565.40,5.818
565.60,5.832
565.80,5.832
566.00,5.812
566.20,5.81
566.40,5.822
566.60,5.85
566.80,5.804
567.00,5.854
567.20,5.812
567.40,5.876
567.60,5.832
567.80,5.782
568.00,5.826
568.20,5.834
568.40,5.856
568.60,5.812
568.80,5.844
569.00,5.776
569.20,5.788
569.40,5.828
569.60,5.834
569.80,5.788
570.00,5.818
570.20,5.842
570.40,5.828
570.60,5.854
570.80,5.836
571.00,5.818
571.20,5.81
571.40,5.836
571.60,5.822
571.80,5.814
572.00,5.806
572.20,5.828
572.40,5.818
572.60,5.856
572.80,5.87
573.00,5.762
573.20,5.818
573.40,5.814
573.60,5.84
573.80,5.81
574.00,5.858
574.20,5.826
574.40,5.844
574.60,5.832
574.80,5.854
575.00,5.804
575.20,5.782
575.40,5.806
575.60,5.822
575.80,5.84
576.00,5.862
576.20,5.804
576.40,5.91
576.60,5.746
576.80,5.798
577.00,5.818
577.20,5.836
577.40,5.848
577.60,5.792
577.80,5.822
578.00,5.84
578.20,5.826
578.40,5.858
578.60,5.832
578.80,5.812
579.00,5.812
579.20,5.822
579.40,5.806
579.60,5.82
579.80,5.84
580.00,5.87
580.20,5.828
580.40,5.79
580.60,5.814
580.80,5.826
581.00,5.81
581.20,5.834
581.40,5.828
581.60,5.87
581.80,5.768
582.00,5.828
582.20,5.85
582.40,5.782
582.60,5.782
582.80,5.804
583.00,5.818
583.20,5.826
583.40,5.84
583.60,5.828
583.80,5.864
584.00,5.822
584.20,5.812
584.40,5.806
584.60,5.862
584.80,5.82
585.00,5.822
585.20,5.842
585.40,5.796
585.60,5.814
585.80,5.82
586.00,5.832
586.20,5.784
586.40,5.854
586.60,5.85
586.80,5.82
587.00,5.822
587.20,5.842
587.40,5.814
587.60,5.814
587.80,5.806
588.00,5.796
588.20,5.834
588.40,5.848
588.60,5.828
588.80,5.822
589.00,5.866
589.20,5.854
589.40,5.814
589.60,5.814
589.80,5.8
590.00,5.792
590.20,5.828
590.40,5.804
590.60,5.842
590.80,5.836
591.00,5.82
591.40,5.878
591.60,5.872
591.80,5.71
592.00,5.842
592.20,5.826
592.40,5.84
592.60,5.806
592.80,5.85
593.00,5.854
593.20,5.796
593.40,5.826
593.60,5.856
593.80,5.804
594.00,5.844
594.20,5.814
594.40,5.864
594.60,5.818
594.80,5.814
595.00,5.818
595.20,5.832
595.40,5.812
595.60,5.818
595.80,5.834
596.00,5.828
596.20,5.814
596.40,5.818
596.60,5.872
596.80,5.796
597.00,5.814
597.20,5.828
597.40,5.812
597.60,5.814
597.80,5.85
598.00,5.81
598.20,5.812
598.40,5.828
598.60,5.8
598.80,5.832
599.00,5.828
599.20,5.856
599.40,5.774
599.60,5.8
599.80,5.82
600.00,5.804
600.20,5.848
600.40,5.818
600.60,5.832
600.80,5.804
601.00,5.814
601.20,5.812
601.40,5.848
601.60,5.84
601.80,5.826
602.00,5.81
602.20,5.814
602.40,5.848
602.60,5.826
602.80,5.79
603.00,5.826
603.20,5.82
603.40,5.836
603.60,5.792
603.80,5.812
604.00,5.826
604.20,5.804
604.40,5.876
604.60,5.804
604.80,5.84
605.00,5.798
605.20,5.804
605.40,5.81
605.60,5.856
605.80,5.862
606.00,5.806
606.20,5.79
606.40,5.834
606.60,5.84
606.80,5.818
607.00,5.856
607.20,5.858
607.40,5.806
607.60,5.8
607.80,5.818
608.00,5.796
608.20,5.832
608.40,5.85
608.60,5.768
608.80,5.782
609.00,5.84
609.20,5.828
609.40,5.818
609.60,5.902
609.80,5.748
610.00,5.814
610.20,5.832
610.40,5.822
610.60,5.844
610.80,5.822
611.00,5.85
611.20,5.806
611.40,5.804
611.60,5.828
611.80,5.79
612.00,5.88
612.20,5.784
612.40,5.854
612.60,5.812
612.80,5.84
613.00,5.822
613.20,5.77
613.40,5.818
613.60,5.82
613.80,5.844
614.00,5.848
614.20,5.812
614.40,5.854
614.60,5.8
614.80,5.828
615.00,5.826
615.20,5.848
615.40,5.804
615.60,5.79
615.80,5.876
616.00,5.826
616.20,5.818
616.40,5.822
616.60,5.84
616.80,5.804
617.00,5.792
617.20,5.832
617.40,5.806
617.60,5.796
617.80,5.822
618.00,5.836
618.20,5.856
618.40,5.832
618.60,5.768
618.80,5.826
619.00,5.836
619.20,5.82
619.40,5.804
619.60,5.842
619.80,5.828
620.00,5.82
620.20,5.822
620.40,5.84
620.60,5.836
620.80,5.768
621.00,5.82
621.20,5.812
621.40,5.81
621.60,5.822
621.80,5.834
622.00,5.804
622.20,5.828
622.40,5.828
622.60,5.834
622.80,5.814
623.00,5.858
623.20,5.82
623.40,5.812
623.60,5.84
623.80,5.806
624.00,5.836
624.20,5.834
624.40,5.834
624.60,5.812
624.80,5.828
625.00,5.836
625.20,5.828
625.40,5.842
625.60,5.842
625.80,5.81
626.00,5.828
626.20,5.862
626.40,5.806
626.60,5.864
626.80,5.756
627.00,5.832
627.20,5.784
627.40,5.876
627.60,5.914
627.80,5.762
628.00,5.804
628.20,5.844
628.40,5.776
628.60,5.84
628.80,5.82
629.00,5.87
629.20,5.854
629.40,5.81
629.60,5.82
629.80,5.822
630.00,5.834
630.20,5.844
630.40,5.79
630.60,5.8
630.80,5.828
631.00,5.836
631.20,5.836
631.40,5.818
631.60,5.854
631.80,5.812
632.00,5.87
632.20,5.822
632.40,5.828
632.60,5.798
632.80,5.79
633.00,5.818
633.20,5.792
633.40,5.854
633.60,5.806
633.80,5.848
634.00,5.85
634.20,5.778
634.40,5.776
634.60,5.84
634.80,5.844
635.00,5.814
635.20,5.828
635.40,5.87
635.60,5.804
635.80,5.77
636.00,5.818
636.20,5.854
636.40,5.81
636.60,5.834
636.80,5.84
637.00,5.776
637.20,5.836
637.40,5.828
637.60,5.826
637.80,5.836
638.00,5.85
638.20,5.828
638.40,5.798
638.60,5.836
638.80,5.828
639.00,5.8
639.20,5.832
639.40,5.81
639.60,5.85
639.80,5.826
640.00,5.842
640.20,5.788
640.40,5.854
640.60,5.812
640.80,5.878
641.00,5.798
641.20,5.784
641.40,5.798
641.60,5.876
641.80,5.79
642.00,5.878
642.20,5.822
642.40,5.822
642.60,5.82
642.80,5.85
643.00,5.798
643.20,5.862
643.40,5.784
643.60,5.792
643.80,5.842
644.00,5.82
644.20,5.814
644.40,5.804
644.60,5.836
644.80,5.818
645.00,5.858
645.20,5.8
645.40,5.834
645.60,5.922
645.80,5.734
646.00,5.806
646.20,5.826
646.40,5.806
646.60,5.864
646.80,5.814
647.00,5.81
647.20,5.822
647.40,5.858
647.60,5.784
647.80,5.848
648.00,5.826
648.20,5.822
648.40,5.81
648.60,5.826
648.80,5.812
649.00,5.85
649.20,5.81
649.40,5.796
649.60,5.8
649.80,5.848
650.00,5.796
650.20,5.842
650.40,5.842
650.60,5.804
650.80,5.864
651.00,5.818
651.20,5.858
651.40,5.798
651.60,5.84
651.80,5.81
652.00,5.79
652.20,5.85
652.40,5.798
652.60,5.85
652.80,5.798
653.00,5.81
653.20,5.792
653.40,5.836
653.60,5.81
653.80,5.814
654.00,5.814
654.20,5.818
654.40,5.85
654.60,5.79
654.80,5.828
655.00,5.84
655.20,5.806
655.40,5.858
655.60,5.8
655.80,5.848
656.00,5.822
656.20,5.842
656.40,5.854
656.60,5.818
656.80,5.82
657.00,5.844
657.20,5.798
657.40,5.784
657.60,5.814
657.80,5.856
658.00,5.806
658.20,5.848
658.40,5.818
658.60,5.8
658.80,5.822
659.00,5.81
659.20,5.768
659.40,5.842
659.60,5.828
659.80,5.832
660.00,5.836
660.20,5.826
660.40,5.844
660.60,5.788
660.80,5.848
661.00,5.842
661.20,5.848
661.40,5.798
661.60,5.834
661.80,5.798
662.00,5.814
662.20,5.822
662.40,5.832
662.60,5.812
662.80,5.806
663.00,5.862
663.20,5.766
663.40,5.804
663.60,5.93
663.80,5.756
664.00,5.826
664.20,5.798
664.40,5.806
664.60,5.87
664.80,5.85
665.00,5.806
665.20,5.788
665.40,5.814
665.60,5.828
665.80,5.842
666.00,5.79
666.20,5.836
666.40,5.8
666.60,5.836
666.80,5.834
667.00,5.806
667.20,5.814
667.40,5.834
667.60,5.788
667.80,5.842
668.00,5.844
668.20,5.826
668.40,5.79
668.60,5.836
668.80,5.812
669.00,5.806
669.20,5.826
669.40,5.828
669.60,5.842
669.80,5.826
670.00,5.798
670.20,5.834
670.40,5.856
670.60,5.784
670.80,5.856
671.00,5.822
671.20,5.812
671.40,5.828
671.60,5.804
671.80,5.826
672.00,5.814
672.20,5.84
672.40,5.836
672.60,5.848
672.80,5.832
673.00,5.776
673.20,5.842
673.40,5.828
673.60,5.818
673.80,5.864
674.00,5.798
674.20,5.792
674.40,5.854
674.60,5.828
674.80,5.822
675.00,5.832
675.20,5.8
675.40,5.834
675.60,5.812
675.80,5.842
676.00,5.826
676.20,5.876
676.40,5.832
676.60,5.804
676.80,5.82
677.00,5.856
677.20,5.832
677.40,5.842
677.60,5.804
677.80,5.822
678.00,5.792
678.20,5.894
678.40,5.806
678.60,5.79
678.80,5.862
679.00,5.798
679.20,5.82
679.40,5.834
679.60,5.818
679.80,5.774
680.00,5.842
680.20,5.804
680.40,5.862
680.60,5.79
680.80,5.85
681.00,5.82
681.20,5.84
681.40,5.782
681.60,5.898
681.80,5.74
682.00,5.842
682.20,5.81
682.40,5.862
682.60,5.796
682.80,5.82
683.00,5.822
683.20,5.826
683.40,5.756
683.60,5.876
683.80,5.834
684.00,5.826
684.20,5.826
684.40,5.826
684.60,5.834
684.80,5.826
685.00,5.762
685.20,5.826
685.40,5.826
685.60,5.834
685.80,5.812
686.00,5.844
686.20,5.79
686.40,5.826
686.60,5.858
686.80,5.844
687.00,5.798
687.20,5.79
687.40,5.812
687.60,5.842
687.80,5.844
688.00,5.858
688.20,5.814
688.40,5.818
688.60,5.774
688.80,5.796
689.00,5.854
689.20,5.828
689.40,5.85
689.60,5.826
689.80,5.82
690.00,5.822
690.20,5.8
690.40,5.832
690.60,5.828
690.80,5.834
691.00,5.812
691.20,5.828
691.40,5.828
691.60,5.82
691.80,5.81
692.00,5.826
692.20,5.834
692.40,5.812
692.60,5.842
692.80,5.804
693.00,5.818
693.20,5.828
693.40,5.836
693.60,5.806
693.80,5.8
694.00,5.878
694.20,5.832
694.40,5.776
694.60,5.82
694.80,5.82
695.00,5.854
695.20,5.832
695.40,5.826
695.60,5.84
695.80,5.81
696.00,5.834
696.20,5.796
696.40,5.828
696.60,5.822
696.80,5.822
697.00,5.792
697.20,5.8
697.40,5.826
697.60,5.812
697.80,5.818
698.00,5.836
698.20,5.862
698.40,5.776
698.60,5.826
698.80,5.826
699.00,5.876
699.20,5.818
699.40,5.834
699.60,5.91
699.80,5.708
700.00,5.826
700.20,5.842
700.40,5.804
700.60,5.834
700.80,5.848
701.00,5.826
701.20,5.812
701.40,5.806
701.60,5.84
701.80,5.798
702.00,5.826
702.20,5.836
702.40,5.822
702.60,5.858
702.80,5.858
703.00,5.788
703.20,5.788
703.40,5.872
703.60,5.776
703.80,5.84
704.00,5.85
704.20,5.79
704.40,5.796
704.60,5.854
704.80,5.818
705.00,5.836
705.20,5.804
705.40,5.806
705.60,5.806
705.80,5.828
706.00,5.842
706.20,5.888
706.40,5.812
706.60,5.806
706.80,5.8
707.00,5.81
707.20,5.842
707.40,5.796
707.60,5.822
707.80,5.818
708.00,5.842
708.20,5.814
708.40,5.818
708.60,5.778
708.80,5.84
709.00,5.792
709.20,5.826
709.40,5.832
709.60,5.806
709.80,5.79
710.00,5.884
710.20,5.854
710.40,5.876
710.60,5.798
710.80,5.826
711.00,5.748
711.20,5.834
711.40,5.88
711.60,5.818
711.80,5.818
712.00,5.812
712.20,5.832
712.40,5.82
712.60,5.79
712.80,5.814
713.00,5.828
713.20,5.812
713.40,5.832
713.60,5.82
713.80,5.806
714.00,5.832
714.20,5.828
714.40,5.822
714.60,5.828
714.80,5.84
715.00,5.836
715.20,5.798
715.40,5.822
715.60,5.87
715.80,5.822
716.00,5.8
716.20,5.812
716.40,5.856
716.60,5.804
716.80,5.858
717.00,5.832
717.20,5.81
717.40,5.812
717.60,5.92
717.80,5.722
718.00,5.806
718.20,5.818
718.40,5.828
718.60,5.806
718.80,5.836
719.00,5.804
719.20,5.826
719.40,5.826
719.60,5.82
719.80,5.826
720.00,5.842
720.20,5.814
720.40,5.814
720.60,5.826
720.80,5.844
721.00,5.804
721.20,5.792
721.40,5.836
721.60,5.848
721.80,5.826
722.00,5.856
722.20,5.826
722.40,5.826
722.60,5.822
722.80,5.81
723.00,5.832
723.20,5.828
723.40,5.84
723.60,5.82
723.80,5.814
724.00,5.884
724.20,5.822
724.40,5.798
724.60,5.806
724.80,5.826
725.00,5.826
725.20,5.806
725.40,5.842
725.60,5.798
725.80,5.832
726.00,5.818
726.20,5.834
726.40,5.832
726.60,5.864
726.80,5.818
727.00,5.804
727.20,5.8
727.40,5.864
727.60,5.826
727.80,5.834
728.00,5.814
728.20,5.806
728.40,5.826
728.60,5.854
728.80,5.856
729.00,5.754
729.20,5.834
729.40,5.784
729.60,5.836
729.80,5.842
730.00,5.832
730.20,5.834
730.40,5.842
730.60,5.798
730.80,5.856
731.00,5.814
731.20,5.832
731.40,5.818
731.60,5.844
731.80,5.784
732.00,5.828
732.20,5.774
732.40,5.812
732.60,5.804
732.80,5.848
733.00,5.828
733.20,5.832
733.40,5.81
733.60,5.82
733.80,5.832
734.00,5.834
734.20,5.818
734.40,5.826
734.60,5.834
734.80,5.804
735.00,5.826
735.20,5.82
735.40,5.782
735.60,5.894
735.80,5.762
736.00,5.77
736.20,5.828
736.40,5.844
736.60,5.854
736.80,5.822
737.00,5.79
737.20,5.848
737.40,5.812
737.60,5.842
737.80,5.806
738.00,5.798
738.20,5.814
738.40,5.848
738.60,5.826
738.80,5.826
739.00,5.812
739.20,5.792
739.40,5.826
739.60,5.812
739.80,5.81
740.00,5.798
740.20,5.88
740.40,5.82
740.60,5.826
740.80,5.814
741.00,5.8
741.20,5.828
741.40,5.822
741.60,5.848
741.80,5.826
742.00,5.796
742.20,5.82
742.40,5.812
742.60,5.872
742.80,5.832
743.00,5.878
743.20,5.806
743.40,5.826
743.60,5.796
743.80,5.848
744.00,5.84
744.20,5.804
744.40,5.818
744.60,5.792
744.80,5.876
745.00,5.812
745.20,5.814
745.40,5.814
745.60,5.822
745.80,5.844
746.00,5.806
746.20,5.826
746.40,5.848
746.60,5.832
746.80,5.774
747.00,5.858
747.20,5.806
747.40,5.81
747.60,5.836
747.80,5.822
748.00,5.85
748.20,5.812
748.40,5.814
748.60,5.84
748.80,5.826
749.00,5.844
749.20,5.844
749.40,5.834
749.60,5.804
749.80,5.81
750.00,5.828
750.20,5.804
750.40,5.85
750.60,5.848
750.80,5.804
751.00,5.854
751.20,5.806
751.40,5.84
751.60,5.804
751.80,5.84
752.00,5.828
752.20,5.826
752.40,5.788
752.60,5.814
752.80,5.832
753.00,5.822
753.20,5.788
753.40,5.828
753.60,5.922
753.80,5.754
754.00,5.822
754.20,5.798
754.40,5.822
754.60,5.826
754.80,5.814
755.00,5.866
755.20,5.804
755.40,5.81
755.60,5.792
755.80,5.864
756.00,5.836
756.20,5.798
756.40,5.856
756.60,5.798
756.80,5.866
757.00,5.76
757.20,5.866
757.40,5.782
757.60,5.822
757.80,5.872
758.00,5.862
758.20,5.776
758.40,5.848
758.60,5.814
758.80,5.812
759.00,5.818
759.20,5.82
759.40,5.872
759.60,5.754
759.80,5.826
760.00,5.844
760.20,5.806
760.40,5.814
760.60,5.8
760.80,5.82
761.00,5.814
761.20,5.87
761.40,5.798
761.60,5.844
761.80,5.784
762.00,5.822
762.20,5.856
762.40,5.84
762.60,5.806
762.80,5.81
763.00,5.818
763.20,5.854
763.40,5.788
763.60,5.85
763.80,5.814
764.00,5.814
764.20,5.812
764.40,5.844
764.60,5.762
764.80,5.826
765.00,5.886
765.20,5.826
765.40,5.806
765.60,5.784
765.80,5.856
766.00,5.836
766.20,5.806
766.40,5.85
766.60,5.836
766.80,5.79
767.00,5.826
767.20,5.826
767.40,5.898
767.60,5.844
767.80,5.804
768.00,5.804
768.20,5.848
768.40,5.832
768.60,5.796
768.80,5.826
769.00,5.854
769.20,5.848
769.40,5.8
769.60,5.818
769.80,5.812
770.00,5.818
770.20,5.826
770.40,5.826
770.60,5.828
770.80,5.8
771.00,5.8
771.20,5.862
771.40,5.814
771.60,5.946
771.80,5.712
772.00,5.792
772.20,5.814
772.40,5.798
772.60,5.842
772.80,5.818
773.00,5.782
773.20,5.814
773.40,5.862
773.60,5.826
773.80,5.81
774.00,5.842
774.20,5.828
774.40,5.826
774.60,5.818
774.80,5.834
775.00,5.832
775.20,5.826
775.40,5.79
775.60,5.844
775.80,5.84
776.00,5.822
776.20,5.818
776.40,5.836
776.60,5.814
776.80,5.792
777.00,5.866
777.20,5.85
777.40,5.776
777.60,5.812
777.80,5.8
778.00,5.826
778.20,5.818
778.40,5.814
778.60,5.796
778.80,5.844
779.00,5.796
779.20,5.856
779.40,5.84
779.60,5.842
779.80,5.812
780.00,5.826
780.20,5.788
780.40,5.864
780.60,5.832
780.80,5.806
781.00,5.828
781.20,5.832
781.40,5.856
781.60,5.822
781.80,5.806
782.00,5.836
782.20,5.818
782.40,5.782
782.60,5.862
782.80,5.806
783.00,5.814
783.20,5.832
783.40,5.82
783.60,5.804
783.80,5.822
784.00,5.792
784.20,5.842
784.40,5.82
784.60,5.858
784.80,5.828
785.00,5.804
785.20,5.842
785.40,5.798
785.60,5.834
785.80,5.806
786.00,5.822
786.20,5.826
786.40,5.842
786.60,5.806
786.80,5.854
787.00,5.814
787.20,5.782
787.40,5.812
787.60,5.84
787.80,5.822
788.00,5.848
788.20,5.832
788.40,5.854
788.60,5.826
788.80,5.76
789.00,5.812
789.20,5.788
789.40,5.836
789.60,5.922
789.80,5.756
790.00,5.814
790.20,5.796
790.40,5.812
790.60,5.822
790.80,5.858
791.00,5.826
791.20,5.826
791.40,5.814
791.60,5.822
791.80,5.788
792.00,5.84
792.20,5.864
792.40,5.798
792.60,5.796
792.80,5.85
793.00,5.814
793.20,5.784
793.40,5.858
793.60,5.844
793.80,5.826
794.00,5.834
794.20,5.848
794.40,5.832
794.60,5.756
794.80,5.792
795.00,5.84
795.20,5.864
795.40,5.81
795.60,5.818
795.80,5.85
796.00,5.8
796.20,5.84
796.40,5.854
796.60,5.82
796.80,5.798
797.00,5.77
797.20,5.834
797.40,5.864
797.60,5.826
797.80,5.842
798.00,5.79
798.20,5.812
798.40,5.822
798.60,5.836
798.80,5.81
799.00,5.804
799.20,5.844
799.40,5.79
799.60,5.798
799.80,5.872
800.00,5.826
800.20,5.822
800.40,5.77
800.60,5.848
800.80,5.822
801.00,5.804
801.20,5.814
801.40,5.842
801.60,5.826
801.80,5.826
802.00,5.844
802.20,5.798
802.40,5.85
802.60,5.79
802.80,5.826
803.00,5.836
803.20,5.848
803.40,5.782
803.60,5.832
803.80,5.832
804.00,5.79
804.20,5.822
804.40,5.856
804.60,5.79
804.80,5.81
805.00,5.84
805.20,5.818
805.40,5.8
805.60,5.826
805.80,5.788
806.00,5.84
806.20,5.872
806.40,5.834
806.60,5.82
806.80,5.796
807.00,5.804
807.20,5.858
807.40,5.812
807.60,5.892
807.80,5.752
808.00,5.82
808.20,5.81
808.40,5.812
808.60,5.842
808.80,5.842
809.00,5.826
809.20,5.814
809.40,5.79
809.60,5.858
809.80,5.806
810.00,5.826
810.20,5.826
810.40,5.784
810.60,5.84
810.80,5.818
811.00,5.85
811.20,5.818
811.40,5.848
811.60,5.818
811.80,5.812
812.00,5.82
812.20,5.842
812.40,5.834
812.60,5.804
812.80,5.81
813.00,5.85
813.20,5.828
813.40,5.822
813.60,5.812
813.80,5.82
814.00,5.812
814.20,5.81
814.40,5.826
814.60,5.856
814.80,5.828
815.00,5.826
815.20,5.8
815.40,5.812
815.60,5.788
815.80,5.848
816.00,5.858
816.20,5.79
816.40,5.826
816.60,5.826
816.80,5.822
817.00,5.828
817.20,5.818
817.40,5.826
817.60,5.822
817.80,5.784
818.00,5.826
818.20,5.828
818.40,5.806
818.60,5.832
818.80,5.82
819.00,5.804
819.20,5.84
819.40,5.85
819.60,5.87
819.80,5.774
820.00,5.85
820.20,5.848
820.40,5.834
820.60,5.778
820.80,5.834
821.00,5.8
821.20,5.822
821.40,5.854
821.60,5.842
821.80,5.81
822.00,5.804
822.20,5.848
822.40,5.822
822.60,5.812
822.80,5.792
823.00,5.856
823.20,5.878
823.40,5.812
823.60,5.804
823.80,5.854
824.00,5.828
824.20,5.828
824.40,5.836
824.60,5.834
824.80,5.848
825.00,5.804
825.20,5.834
825.40,5.84
825.60,5.914
825.80,5.7
826.00,5.8
826.20,5.844
826.40,5.81
826.60,5.856
826.80,5.798
827.00,5.832
827.20,5.82
827.40,5.82
827.60,5.832
827.80,5.806
828.00,5.814
828.20,5.848
828.40,5.81
828.60,5.812
828.80,5.848
829.00,5.82
829.20,5.828
829.40,5.82
829.60,5.814
829.80,5.826
830.00,5.832
830.20,5.862
830.40,5.784
830.60,5.864
830.80,5.84
831.00,5.806
831.20,5.832
831.40,5.826
831.60,5.814
831.80,5.84
832.00,5.844
832.20,5.822
832.40,5.804
832.60,5.854
832.80,5.798
833.00,5.81
833.20,5.826
833.40,5.814
833.60,5.85
833.80,5.782
834.00,5.836
834.20,5.84
834.40,5.834
834.60,5.81
834.80,5.806
835.00,5.848
835.20,5.818
835.40,5.85
835.60,5.804
835.80,5.856
836.00,5.8
836.20,5.822
836.40,5.832
836.60,5.79
836.80,5.872
837.00,5.79
837.20,5.812
837.40,5.842
837.60,5.82
837.80,5.832
838.00,5.828
838.20,5.806
838.40,5.814
838.60,5.84
838.80,5.848
839.00,5.812
839.20,5.804
839.40,5.822
839.60,5.79
839.80,5.854
840.00,5.796
840.20,5.828
840.40,5.814
840.60,5.834
840.80,5.85
841.00,5.832
841.20,5.776
841.40,5.792
841.60,5.814
841.80,5.848
842.00,5.81
842.20,5.836
842.40,5.876
842.60,5.8
842.80,5.82
843.00,5.804
843.20,5.832
843.40,5.826
843.60,5.932
843.80,5.722
844.00,5.822
844.20,5.82
844.40,5.792
844.60,5.782
844.80,5.848
845.00,5.822
845.20,5.836
845.40,5.822
845.60,5.812
845.80,5.878
846.00,5.778
846.20,5.812
846.40,5.842
846.60,5.776
846.80,5.818
847.00,5.854
847.20,5.836
847.40,5.814
847.60,5.81
847.80,5.848
848.00,5.796
848.20,5.836
848.40,5.79
848.60,5.82
848.80,5.866
849.00,5.81
849.20,5.798
849.40,5.792
849.60,5.88
849.80,5.82
850.00,5.82
850.20,5.842
850.40,5.818
850.60,5.834
850.80,5.826
851.00,5.82
851.20,5.8
851.40,5.818
851.60,5.832
851.80,5.804
852.00,5.826
852.20,5.798
852.40,5.812
852.60,5.864
852.80,5.8
853.00,5.848
853.20,5.784
853.40,5.856
853.60,5.832
853.80,5.806
854.00,5.788
854.20,5.832
854.40,5.806
854.60,5.9
854.80,5.762
855.00,5.832
855.20,5.878
855.40,5.792
855.60,5.814
855.80,5.812
856.00,5.806
856.20,5.866
856.40,5.804
856.60,5.836
856.80,5.826
857.00,5.806
857.20,5.842
857.40,5.848
857.60,5.822
857.80,5.844
858.00,5.836
858.20,5.792
858.40,5.84
858.60,5.792
858.80,5.826
859.00,5.826
859.20,5.848
859.40,5.822
859.60,5.806
859.80,5.848
860.00,5.806
860.20,5.836
860.40,5.84
860.60,5.79
860.80,5.832
861.00,5.832
861.20,5.854
861.40,5.826
861.60,5.908
861.80,5.73
862.00,5.82
862.20,5.828
862.40,5.79
862.60,5.832
862.80,5.812
863.00,5.818
863.20,5.85
863.40,5.826
863.60,5.818
863.80,5.848
864.00,5.812
864.20,5.818
864.40,5.818
864.60,5.834
864.80,5.79
865.00,5.872
865.20,5.806
865.40,5.836
865.60,5.814
865.80,5.826
866.00,5.844
866.20,5.792
866.40,5.806
866.60,5.832
866.80,5.856
867.00,5.792
867.20,5.832
867.40,5.84
867.60,5.848
867.80,5.796
868.00,5.832
868.20,5.832
868.40,5.812
868.60,5.84
868.80,5.826
869.00,5.792
869.20,5.806
869.40,5.842
869.60,5.85
869.80,5.82
870.00,5.812
870.20,5.878
870.40,5.84
870.60,5.766
870.80,5.836
871.00,5.804
871.20,5.856
871.40,5.82
871.60,5.854
871.80,5.754
872.00,5.87
872.20,5.776
872.40,5.806
872.60,5.834
872.80,5.834
873.00,5.814
873.20,5.876
873.40,5.8
873.60,5.814
873.80,5.82
874.00,5.798
874.20,5.822
874.40,5.858
874.60,5.854
874.80,5.818
875.00,5.822
875.20,5.854
875.40,5.836
875.60,5.806
875.80,5.84
876.00,5.842
876.20,5.832
876.40,5.85
876.60,5.798
876.80,5.84
877.00,5.796
877.20,5.85
877.40,5.87
877.60,5.792
877.80,5.834
878.00,5.844
878.20,5.828
878.40,5.822
878.60,5.788
878.80,5.812
879.00,5.888
879.20,5.806
879.40,5.834
879.60,5.892
879.80,5.732
880.00,5.79
880.20,5.82
880.40,5.834
880.60,5.828
880.80,5.79
881.00,5.826
881.20,5.818
881.40,5.848
881.60,5.834
881.80,5.828
882.00,5.832
882.20,5.834
882.40,5.832
882.60,5.85
882.80,5.782
883.00,5.806
883.20,5.81
883.40,5.834
883.60,5.82
883.80,5.792
884.00,5.85
884.20,5.848
884.40,5.818
884.60,5.798
884.80,5.828
885.00,5.784
885.20,5.826
885.40,5.798
885.60,5.828
885.80,5.832
886.00,5.82
886.20,5.84
886.40,5.804
886.60,5.814
886.80,5.828
887.00,5.804
887.20,5.818
887.40,5.84
887.60,5.844
887.80,5.822
888.00,5.812
888.20,5.85
888.40,5.828
888.60,5.826
888.80,5.812
889.00,5.752
889.20,5.876
889.40,5.79
889.60,5.836
889.80,5.814
890.00,5.842
890.20,5.82
890.40,5.776
890.60,5.84
890.80,5.798
891.00,5.84
891.20,5.832
891.60,5.834
891.80,5.784
892.00,5.848
892.20,5.826
892.40,5.836
892.60,5.814
892.80,5.82
893.00,5.856
893.20,5.798
893.40,5.806
893.60,5.844
893.80,5.816
894.00,5.842
894.20,5.816
894.40,5.814
894.60,5.82
894.80,5.932
895.00,5.716
895.20,5.79
895.40,5.88
895.60,5.82
895.80,5.814
896.00,5.82
896.20,5.836
896.40,5.834
896.60,5.82
896.80,5.834
897.00,5.822
897.20,5.798
897.40,5.814
897.60,5.814
897.80,5.822
898.00,5.79
898.20,5.844
898.40,5.848
898.60,5.816
898.80,5.828
899.00,5.85
899.20,5.794
899.40,5.828
899.60,5.798
899.80,5.842
900.00,5.83
900.20,5.838
900.40,5.806
900.60,5.834
900.80,5.834
901.00,5.804
901.20,5.814
901.40,5.856
901.60,5.756
901.80,5.844
902.00,5.806
902.20,5.842
902.40,5.79
902.60,5.844
902.80,5.806
903.00,5.822
903.20,5.816
903.40,5.816
903.60,5.822
903.80,5.8
904.00,5.834
904.20,5.8
904.40,5.822
904.60,5.826
904.80,5.86
905.00,5.786
905.20,5.826
905.40,5.762
905.60,5.848
905.80,5.826
906.00,5.804
906.20,5.828
906.40,5.878
906.60,5.794
906.80,5.842
907.00,5.822
907.20,5.79
907.40,5.856
907.60,5.82
907.80,5.828
908.00,5.828
908.20,5.826
908.40,5.852
908.60,5.806
908.80,5.814
909.00,5.842
909.20,5.834
909.40,5.808
909.60,5.826
909.80,5.844
910.00,5.822
910.20,5.83
910.40,5.806
910.60,5.782
910.80,5.902
911.00,5.776
911.20,5.822
911.40,5.82
911.60,5.814
911.80,5.814
912.00,5.842
912.20,5.852
912.40,5.784
912.60,5.798
912.80,5.91
913.00,5.748
913.20,5.858
913.40,5.786
913.60,5.848
913.80,5.814
914.00,5.826
914.20,5.812
914.40,5.844
914.60,5.822
914.80,5.828
915.00,5.79
915.20,5.844
915.40,5.812
915.60,5.826
915.80,5.892
916.00,5.784
916.20,5.864
916.40,5.768
916.60,5.864
916.80,5.806
917.00,5.822
917.20,5.814
917.40,5.852
917.60,5.822
917.80,5.8
918.00,5.828
918.20,5.844
918.40,5.828
918.60,5.834
918.80,5.826
919.00,5.794
919.20,5.814
919.40,5.844
919.60,5.86
919.80,5.812
920.00,5.77
920.20,5.848
920.40,5.858
920.60,5.852
920.80,5.786
921.00,5.86
921.20,5.764
921.40,5.816
921.60,5.812
921.80,5.816
922.00,5.842
922.20,5.844
922.40,5.858
922.60,5.772
922.80,5.794
923.00,5.838
923.20,5.822
923.40,5.77
923.60,5.872
923.80,5.822
924.00,5.784
924.20,5.814
924.40,5.848
924.60,5.82
924.80,5.834
925.00,5.782
925.20,5.86
925.40,5.822
925.60,5.816
925.80,5.806
926.00,5.828
926.20,5.822
926.40,5.85
926.60,5.85
926.80,5.822
927.00,5.828
927.20,5.808
927.40,5.826
927.60,5.822
927.80,5.772
928.00,5.864
928.20,5.838
928.40,5.794
928.60,5.85
928.80,5.798
929.00,5.848
929.20,5.798
929.40,5.806
929.60,5.808
929.80,5.86
930.00,5.87
930.20,5.828
930.40,5.814
930.60,5.814
930.80,5.936
931.00,5.706
931.20,5.806
931.40,5.794
931.60,5.828
931.80,5.858
932.00,5.806
932.20,5.8
932.40,5.838
932.60,5.806
932.80,5.852
933.00,5.816
933.20,5.806
933.40,5.808
933.60,5.812
933.80,5.86
934.00,5.812
934.20,5.852
934.40,5.804
934.60,5.842
934.80,5.852
935.00,5.83
935.20,5.742
935.40,5.872
935.60,5.8
935.80,5.858
936.00,5.778
936.20,5.826
936.40,5.838
936.60,5.798
936.80,5.86
937.00,5.77
937.20,5.808
937.40,5.804
937.60,5.866
937.80,5.786
938.00,5.858
938.20,5.83
938.40,5.822
938.60,5.83
938.80,5.816
939.00,5.814
939.20,5.826
939.40,5.844
939.60,5.872
939.80,5.786
940.00,5.842
940.20,5.842
940.40,5.826
940.60,5.804
940.80,5.794
941.00,5.806
941.20,5.828
941.40,5.792
941.60,5.826
941.80,5.822
942.00,5.838
942.20,5.808
942.40,5.826
942.60,5.866
942.80,5.794
943.00,5.834
943.20,5.826
943.40,5.826
943.60,5.822
943.80,5.82
944.00,5.838
944.20,5.834
944.40,5.768
944.60,5.866
944.80,5.842
945.00,5.812
945.20,5.826
945.40,5.814
945.60,5.834
945.80,5.786
946.00,5.822
946.20,5.864
946.40,5.822
946.60,5.786
946.80,5.822
947.00,5.798
947.20,5.838
947.40,5.828
947.60,5.888
947.80,5.776
948.00,5.82
948.20,5.79
948.40,5.836
948.60,5.79
948.80,5.936
949.00,5.732
949.20,5.842
949.40,5.838
949.60,5.812
949.80,5.808
950.00,5.856
950.20,5.778
950.40,5.848
950.60,5.82
950.80,5.814
951.00,5.826
951.20,5.842
951.40,5.794
951.60,5.866
951.80,5.828
952.00,5.804
952.20,5.82
952.40,5.826
952.60,5.782
952.80,5.828
953.00,5.836
953.20,5.806
953.40,5.844
953.60,5.85
953.80,5.784
954.00,5.826
954.20,5.822
954.40,5.838
954.60,5.798
954.80,5.808
955.00,5.812
955.20,5.822
955.40,5.83
955.60,5.834
955.80,5.806
956.00,5.844
956.20,5.812
956.40,5.79
956.60,5.838
956.80,5.808
957.00,5.804
957.20,5.814
957.40,5.856
957.60,5.814
957.80,5.792
958.00,5.858
958.20,5.83
958.40,5.814
958.60,5.812
958.80,5.814
959.00,5.806
959.20,5.812
959.40,5.826
959.60,5.82
959.80,5.83
960.00,5.798
960.20,5.848
960.40,5.852
960.60,5.822
960.80,5.798
961.00,5.798
961.20,5.848
961.40,5.838
961.60,5.812
961.80,5.826
962.00,5.794
962.20,5.834
962.40,5.808
962.60,5.834
962.80,5.822
963.00,5.812
963.20,5.776
963.40,5.816
963.60,5.82
963.80,5.834
964.00,5.85
964.20,5.786
964.40,5.864
964.60,5.816
964.80,5.806
965.00,5.82
965.20,5.806
965.40,5.8
965.60,5.83
965.80,5.834
966.00,5.814
966.20,5.814
966.40,5.822
966.60,5.85
966.80,5.922
967.00,5.724
967.20,5.804
967.40,5.844
967.60,5.826
967.80,5.804
968.00,5.814
968.20,5.822
968.40,5.798
968.60,5.848
968.80,5.772
969.00,5.882
969.20,5.808
969.40,5.82
969.60,5.784
969.80,5.838
970.00,5.826
970.20,5.8
970.40,5.834
970.60,5.822
970.80,5.808
971.00,5.814
971.20,5.822
971.40,5.826
971.60,5.838
971.80,5.806
972.00,5.792
972.20,5.814
972.40,5.798
972.60,5.838
972.80,5.844
973.00,5.828
973.20,5.834
973.40,5.826
973.60,5.79
973.80,5.83
974.00,5.864
974.20,5.842
974.40,5.826
974.60,5.856
974.80,5.822
975.00,5.816
975.20,5.852
975.40,5.804
975.60,5.812
975.80,5.806
976.00,5.792
976.20,5.826
976.40,5.83
976.60,5.828
976.80,5.838
977.00,5.82
977.20,5.844
977.40,5.82
977.60,5.816
977.80,5.812
978.00,5.83
978.20,5.838
978.40,5.856
978.60,5.826
978.80,5.844
979.00,5.804
979.20,5.828
979.40,5.798
979.60,5.85
979.80,5.8
980.00,5.826
980.20,5.872
980.40,5.814
980.60,5.856
980.80,5.814
981.00,5.808
981.20,5.822
981.40,5.806
981.60,5.826
981.80,5.79
982.00,5.826
982.20,5.842
982.40,5.812
982.60,5.804
982.80,5.85
983.00,5.816
983.20,5.842
983.40,5.798
983.60,5.822
983.80,5.83
984.00,5.836
984.20,5.826
984.40,5.812
984.60,5.834
984.80,5.896
985.00,5.764
985.20,5.806
985.40,5.792
985.60,5.826
985.80,5.852
986.00,5.748
986.20,5.858
986.40,5.784
986.60,5.812
986.80,5.858
987.00,5.808
987.20,5.864
987.40,5.828
987.60,5.804
987.80,5.85
988.00,5.804
988.20,5.79
988.40,5.866
988.60,5.834
988.80,5.834
989.00,5.834
989.20,5.784
989.40,5.812
989.60,5.85
989.80,5.83
990.00,5.812
990.20,5.828
990.40,5.828
990.60,5.804
990.80,5.838
991.00,5.808
991.20,5.784
991.40,5.85
991.60,5.784
991.80,5.838
992.00,5.804
992.20,5.822
992.40,5.856
992.60,5.834
992.80,5.842
993.00,5.782
993.20,5.838
993.40,5.866
993.60,5.816
993.80,5.82
994.00,5.812
994.20,5.798
994.40,5.808
994.60,5.826
994.80,5.87
995.00,5.792
995.20,5.83
995.40,5.816
995.60,5.82
995.80,5.852
996.00,5.816
996.20,5.852
996.40,5.826
996.60,5.826
996.80,5.762
997.00,5.842
997.20,5.808
997.40,5.816
997.60,5.82
997.80,5.866
998.00,5.806
998.20,5.828
998.40,5.834
998.60,5.838
998.80,5.826
999.00,5.786
999.20,5.83
999.40,5.808
999.60,5.834
999.80,5.836
1000.00,5.834
1000.20,5.768
1000.40,5.842
1000.60,5.794
1000.80,5.848
1001.00,5.83
1001.20,5.804
1001.40,5.836
1001.60,5.792
1001.80,5.872
1002.00,5.808
1002.20,5.838
1002.40,5.812
1002.60,5.86
1002.80,5.888
1003.00,5.746
1003.20,5.808
1003.40,5.842
1003.60,5.792
1003.80,5.79
1004.00,5.834
1004.20,5.822
1004.40,5.856
1004.60,5.828
1004.80,5.85
1005.00,5.822
1005.20,5.782
1005.40,5.834
1005.60,5.83
1005.80,5.826
1006.00,5.804
1006.20,5.816
1006.40,5.82
1006.60,5.834
1006.80,5.836
1007.00,5.848
1007.20,5.826
1007.40,5.776
1007.60,5.786
1007.80,5.842
1008.00,5.838
1008.20,5.826
1008.40,5.786
1008.60,5.852
1008.80,5.808
1009.00,5.826
1009.20,5.828
1009.40,5.8
1009.60,5.814
1009.80,5.842
1010.00,5.806
1010.20,5.85
1010.40,5.806
1010.60,5.79
1010.80,5.852
1011.00,5.816
1011.20,5.812
1011.40,5.836
1011.60,5.838
1011.80,5.808
1012.00,5.806
1012.20,5.836
1012.40,5.808
1012.60,5.85
1012.80,5.826
1013.00,5.804
1013.20,5.782
1013.40,5.82
1013.60,5.812
1013.80,5.804
1014.00,5.844
1014.20,5.812
1014.40,5.814
1014.60,5.812
1014.80,5.852
1015.00,5.828
1015.20,5.808
1015.40,5.816
1015.60,5.848
1015.80,5.806
1016.00,5.826
1016.20,5.826
1016.40,5.794
1016.60,5.822
1016.80,5.838
1017.00,5.838
1017.20,5.812
1017.40,5.88
1017.60,5.804
1017.80,5.778
1018.00,5.794
1018.20,5.852
1018.40,5.768
1018.60,5.828
1018.80,5.82
1019.00,5.838
1019.20,5.82
1019.40,5.798
1019.60,5.822
1019.80,5.792
1020.00,5.852
1020.20,5.83
1020.40,5.79
1020.60,5.804
1020.80,5.922
1021.00,5.764
1021.20,5.842
1021.40,5.808
1021.60,5.836
1021.80,5.816
1022.00,5.86
1022.20,5.772
1022.40,5.82
1022.60,5.838
1022.80,5.822
1023.00,5.778
1023.20,5.826
1023.40,5.842
1023.60,5.82
1023.80,5.828
1024.00,5.82
1024.20,5.812
1024.40,5.826
1024.60,5.822
1024.80,5.838
1025.00,5.838
1025.20,5.776
1025.40,5.874
1025.60,5.856
1025.80,5.76
1026.00,5.856
1026.20,5.804
1026.40,5.828
1026.60,5.848
1026.80,5.822
1027.00,5.874
1027.20,5.79
1027.40,5.826
1027.60,5.838
1027.80,5.826
1028.00,5.814
1028.20,5.852
1028.40,5.828
1028.60,5.822
1028.80,5.794
1029.00,5.82
1029.20,5.804
1029.40,5.812
1029.60,5.864
1029.80,5.83
1030.00,5.768
1030.20,5.834
1030.40,5.858
1030.60,5.82
1030.80,5.842
1031.00,5.806
1031.20,5.804
1031.40,5.826
1031.60,5.856
1031.80,5.768
1032.00,5.836
1032.20,5.85
1032.40,5.82
1032.60,5.826
1032.80,5.82
1033.00,5.804
1033.20,5.826
1033.40,5.814
1033.60,5.804
1033.80,5.82
1034.00,5.86
1034.20,5.77
1034.40,5.836
1034.60,5.822
1034.80,5.814
1035.00,5.804
1035.20,5.82
1035.40,5.816
1035.60,5.836
1035.80,5.838
1036.00,5.826
1036.20,5.814
1036.40,5.79
1036.60,5.762
1036.80,5.858
1037.00,5.828
1037.20,5.804
1037.40,5.826
1037.60,5.828
1037.80,5.798
1038.00,5.83
1038.20,5.828
1038.40,5.798
1038.60,5.834
1038.80,5.892
1039.00,5.768
1039.20,5.812
1039.40,5.798
1039.60,5.842
1039.80,5.8
1040.00,5.822
1040.20,5.826
1040.40,5.844
1040.60,5.828
1040.80,5.83
1041.00,5.826
1041.20,5.82
1041.40,5.858
1041.60,5.87
1041.80,5.812
1042.00,5.792
1042.20,5.8
1042.40,5.86
1042.60,5.814
1042.80,5.852
1043.00,5.816
1043.20,5.852
1043.40,5.814
1043.60,5.786
1043.80,5.83
1044.00,5.82
1044.20,5.856
1044.40,5.814
1044.60,5.812
1044.80,5.814
1045.00,5.836
1045.20,5.816
1045.40,5.848
1045.60,5.798
1045.80,5.816
1046.00,5.816
1046.20,5.82
1046.40,5.826
1046.60,5.814
1046.80,5.836
1047.00,5.838
1047.20,5.762
1047.40,5.816
1047.60,5.8
1047.80,5.856
1048.00,5.848
1048.20,5.822
1048.40,5.834
1048.60,5.826
1048.80,5.836
1049.00,5.838
1049.20,5.798
1049.40,5.838
1049.60,5.794
1049.80,5.864
1050.00,5.814
1050.20,5.83
1050.40,5.798
1050.60,5.828
1050.80,5.768
1051.00,5.826
1051.20,5.792
1051.40,5.856
1051.60,5.826
1051.80,5.814
1052.00,5.826
1052.20,5.806
1052.40,5.866
1052.60,5.798
1052.80,5.816
1053.00,5.83
1053.20,5.784
1053.40,5.82
1053.60,5.852
1053.80,5.822
1054.00,5.856
1054.20,5.776
1054.40,5.816
1054.60,5.842
1054.80,5.83
1055.00,5.838
1055.20,5.834
1055.40,5.816
1055.60,5.804
1055.80,5.792
1056.00,5.836
1056.20,5.844
1056.40,5.786
1056.60,5.856
1056.80,5.902
1057.00,5.754
1057.20,5.764
1057.40,5.842
1057.60,5.83
1057.80,5.804
1058.00,5.848
1058.20,5.858
1058.40,5.798
1058.60,5.82
1058.80,5.814
1059.00,5.866
1059.20,5.814
1059.40,5.82
1059.60,5.858
1059.80,5.792
1060.00,5.816
1060.20,5.82
1060.40,5.834
1060.60,5.826
1060.80,5.82
1061.00,5.822
1061.20,5.82
1061.40,5.836
1061.60,5.842
1061.80,5.816
1062.00,5.836
1062.20,5.844
1062.40,5.834
1062.60,5.834
1062.80,5.814
1063.00,5.87
1063.20,5.8
1063.40,5.83
1063.60,5.828
1063.80,5.82
1064.00,5.778
1064.20,5.816
1064.40,5.834
1064.60,5.804
1064.80,5.83
1065.00,5.786
1065.20,5.85
1065.40,5.834
1065.60,5.858
1065.80,5.826
1066.00,5.804
1066.20,5.822
1066.40,5.816
1066.60,5.776
1066.80,5.88
1067.00,5.826
1067.20,5.822
1067.40,5.816
1067.60,5.804
1067.80,5.812
1068.00,5.844
1068.20,5.82
1068.40,5.806
1068.60,5.82
1068.80,5.822
1069.00,5.834
1069.20,5.804
1069.40,5.822
1069.60,5.826
1069.80,5.864
1070.00,5.828
1070.20,5.784
1070.40,5.814
1070.60,5.86
1070.80,5.83
1071.00,5.826
1071.20,5.816
1071.40,5.836
1071.60,5.8
1071.80,5.814
1072.00,5.836
1072.20,5.834
1072.40,5.826
1072.60,5.812
1072.80,5.79
1073.00,5.836
1073.20,5.85
1073.40,5.816
1073.60,5.834
1073.80,5.814
1074.00,5.858
1074.20,5.816
1074.40,5.8
1074.60,5.834
1074.80,5.93
1075.00,5.724
1075.20,5.848
1075.40,5.848
1075.60,5.826
1075.80,5.814
1076.00,5.83
1076.20,5.762
1076.40,5.834
1076.60,5.83
1076.80,5.86
1077.00,5.844
1077.20,5.808
1077.40,5.866
1077.60,5.826
1077.80,5.762
1078.00,5.834
1078.20,5.838
1078.40,5.856
1078.60,5.826
1078.80,5.82
1079.00,5.804
1079.20,5.848
1079.40,5.822
1079.60,5.784
1079.80,5.844
1080.00,5.814
1080.20,5.806
1080.40,5.79
1080.60,5.87
1080.80,5.8
1081.00,5.806
1081.20,5.828
1081.40,5.826
1081.60,5.804
1081.80,5.808
1082.00,5.842
1082.20,5.82
1082.40,5.834
1082.60,5.76
1082.80,5.83
1083.00,5.842
1083.20,5.816
1083.40,5.798
1083.60,5.858
1083.80,5.786
1084.00,5.808
1084.20,5.834
1084.40,5.836
1084.60,5.866
1084.80,5.836
1085.00,5.768
1085.20,5.806
1085.40,5.86
1085.60,5.808
1085.80,5.8
1086.00,5.836
1086.20,5.808
1086.40,5.83
1086.60,5.782
1086.80,5.836
1087.00,5.842
1087.20,5.806
1087.40,5.812
1087.60,5.834
1087.80,5.808
1088.00,5.83
1088.20,5.848
1088.40,5.79
1088.60,5.838
1088.80,5.826
1089.00,5.794
1089.20,5.8
1089.40,5.834
1089.60,5.814
1089.80,5.864
1090.00,5.786
1090.20,5.836
1090.40,5.786
1090.60,5.886
1090.80,5.836
1091.00,5.83
1091.20,5.8
1091.40,5.836
1091.60,5.836
1091.80,5.814
1092.00,5.79
1092.20,5.8
1092.40,5.826
1092.60,5.864
1092.80,5.966
1093.00,5.688
1093.20,5.794
1093.40,5.808
1093.60,5.83
1093.80,5.834
1094.00,5.814
1094.20,5.842
1094.40,5.83
1094.60,5.85
1094.80,5.792
1095.00,5.844
1095.20,5.836
1095.40,5.79
1095.60,5.85
1095.80,5.838
1096.00,5.806
1096.20,5.8
1096.40,5.82
1096.60,5.836
1096.80,5.812
1097.00,5.786
1097.20,5.852
1097.40,5.828
1097.60,5.784
1097.80,5.852
1098.00,5.808
1098.20,5.83
1098.40,5.834
1098.60,5.804
1098.80,5.836
1099.00,5.834
1099.20,5.786
1099.40,5.864
1099.60,5.838
1099.80,5.816
1100.00,5.764
1100.20,5.804
1100.40,5.864
1100.60,5.822
1100.80,5.792
1101.00,5.842
1101.20,5.836
1101.40,5.812
1101.60,5.83
1101.80,5.826
1102.00,5.806
1102.20,5.842
1102.40,5.794
1102.60,5.814
1102.80,5.826
1103.00,5.792
1103.20,5.85
1103.40,5.8
1103.60,5.794
1103.80,5.842
1104.00,5.808
1104.20,5.83
1104.40,5.844
1104.60,5.814
1104.80,5.814
1105.00,5.822
1105.20,5.874
1105.40,5.786
1105.60,5.852
1105.80,5.83
1106.00,5.816
1106.20,5.858
1106.40,5.768
1106.60,5.83
1106.80,5.8
1107.00,5.842
1107.20,5.86
1107.40,5.826
1107.60,5.808
1107.80,5.8
1108.00,5.864
1108.20,5.844
1108.40,5.794
1108.60,5.82
1108.80,5.848
1109.00,5.784
1109.20,5.856
1109.40,5.852
1109.60,5.806
1109.80,5.786
1110.00,5.834
1110.20,5.866
1110.40,5.826
1110.60,5.82
1110.80,5.878
1111.00,5.71
1111.20,5.874
1111.40,5.83
1111.60,5.836
1111.80,5.814
1112.00,5.786
1112.20,5.816
1112.40,5.836
1112.60,5.834
1112.80,5.814
1113.00,5.836
1113.20,5.814
1113.40,5.826
1113.60,5.838
1113.80,5.856
1114.00,5.786
1114.20,5.812
1114.40,5.85
1114.60,5.814
1114.80,5.842
1115.00,5.814
1115.20,5.816
1115.40,5.834
1115.60,5.808
1115.80,5.836
1116.00,5.816
1116.20,5.812
1116.40,5.804
1116.60,5.866
1116.80,5.838
1117.00,5.768
1117.20,5.836
1117.40,5.834
1117.60,5.838
1117.80,5.83
1118.00,5.806
1118.20,5.794
1118.40,5.844
1118.60,5.794
1118.80,5.82
1119.00,5.792
1119.20,5.886
1119.40,5.822
1119.60,5.836
1119.80,5.826
1120.00,5.812
1120.20,5.79
1120.40,5.82
1120.60,5.828
1120.80,5.85
1121.00,5.858
1121.20,5.836
1121.40,5.786
1121.60,5.834
1121.80,5.848
1122.00,5.85
1122.20,5.826
1122.40,5.83
1122.60,5.8
1122.80,5.838
1123.00,5.806
1123.20,5.816
1123.40,5.816
1123.60,5.808
1123.80,5.848
1124.00,5.85
1124.20,5.828
1124.40,5.77
1124.60,5.828
1124.80,5.826
1125.00,5.85
1125.20,5.83
1125.40,5.822
1125.60,5.816
1125.80,5.806
1126.00,5.8
1126.20,5.852
1126.40,5.782
1126.60,5.834
1126.80,5.826
1127.00,5.816
1127.20,5.834
1127.40,5.838
1127.60,5.828
1127.80,5.822
1128.00,5.82
1128.20,5.798
1128.40,5.842
1128.60,5.812
1128.80,5.926
1129.00,5.786
1129.20,5.834
1129.40,5.8
1129.60,5.816
1129.80,5.83
1130.00,5.822
1130.20,5.83
1130.40,5.806
1130.60,5.842
1130.80,5.856
1131.00,5.768
1131.20,5.83
1131.40,5.822
1131.60,5.858
1131.80,5.82
1132.00,5.77
1132.20,5.83
1132.40,5.852
1132.60,5.826
1132.80,5.804
1133.00,5.826
1133.20,5.784
1133.40,5.83
1133.60,5.856
1133.80,5.786
1134.00,5.798
1134.20,5.834
1134.40,5.834
1134.60,5.826
1134.80,5.85
1135.00,5.804
1135.20,5.858
1135.40,5.8
1135.60,5.844
1135.80,5.82
1136.00,5.864
1136.20,5.842
1136.40,5.754
1136.60,5.814
1136.80,5.812
1137.00,5.794
1137.20,5.842
1137.40,5.822
1137.60,5.814
1137.80,5.826
1138.00,5.878
1138.20,5.806
1138.40,5.826
1138.60,5.822
1138.80,5.82
1139.00,5.838
1139.20,5.806
1139.40,5.826
1139.60,5.822
1139.80,5.848
1140.00,5.852
1140.20,5.792
1140.40,5.826
1140.60,5.826
1140.80,5.858
1141.00,5.806
1141.20,5.798
1141.40,5.838
1141.60,5.836
1141.80,5.842
1142.00,5.794
1142.20,5.838
1142.40,5.858
1142.60,5.776
1142.80,5.858
1143.00,5.804
1143.20,5.804
1143.40,5.784
1143.60,5.85
1143.80,5.814
1144.00,5.82
1144.20,5.848
1144.40,5.844
1144.60,5.778
1144.80,5.82
1145.00,5.814
1145.20,5.836
1145.40,5.826
1145.60,5.836
1145.80,5.822
1146.00,5.828
1146.20,5.844
1146.40,5.814
1146.60,5.782
1146.80,5.924
1147.00,5.706
1147.20,5.816
1147.40,5.88
1147.60,5.808
1147.80,5.828
1148.00,5.82
1148.20,5.754
1148.40,5.85
1148.60,5.872
1148.80,5.798
1149.00,5.822
1149.20,5.826
1149.40,5.784
1149.60,5.836
1149.80,5.806
1150.00,5.826
1150.20,5.836
1150.40,5.838
1150.60,5.836
1150.80,5.836
1151.00,5.828
1151.20,5.764
1151.40,5.856
1151.60,5.838
1151.80,5.828
1152.00,5.792
1152.20,5.842
1152.40,5.812
1152.60,5.798
1152.80,5.828
1153.00,5.88
1153.20,5.814
1153.40,5.826
1153.60,5.814
1153.80,5.812
1154.00,5.826
1154.20,5.786
1154.40,5.79
1154.60,5.834
1154.80,5.834
1155.00,5.79
1155.20,5.836
1155.40,5.8
1155.60,5.836
1155.80,5.8
1156.00,5.826
1156.20,5.844
1156.40,5.814
1156.60,5.836
1156.80,5.77
1157.00,5.826
1157.20,5.856
1157.40,5.82
1157.60,5.838
1157.80,5.822
1158.00,5.82
1158.20,5.798
1158.40,5.826
1158.60,5.826
1158.80,5.834
1159.00,5.838
1159.20,5.814
1159.40,5.814
1159.60,5.822
1159.80,5.856
1160.00,5.808
1160.20,5.806
1160.40,5.856
1160.60,5.79
1160.80,5.856
1161.00,5.812
1161.20,5.806
1161.40,5.822
1161.60,5.826
1161.80,5.85
1162.00,5.842
1162.20,5.838
1162.40,5.822
1162.60,5.804
1162.80,5.798
1163.00,5.85
1163.20,5.806
1163.40,5.852
1163.60,5.816
1163.80,5.856
1164.00,5.842
1164.20,5.82
1164.40,5.804
1164.60,5.792
1164.80,5.892
1165.00,5.72
1165.20,5.858
1165.40,5.838
1165.60,5.82
1165.80,5.822
1166.00,5.87
1166.20,5.77
1166.40,5.83
1166.60,5.834
1166.80,5.812
1167.00,5.842
1167.20,5.778
1167.40,5.82
1167.60,5.848
1167.80,5.822
1168.00,5.782
1168.20,5.86
1168.40,5.82
1168.60,5.856
1168.80,5.782
1169.00,5.83
1169.20,5.814
1169.40,5.88
1169.60,5.792
1169.80,5.83
1170.00,5.786
1170.20,5.844
1170.40,5.85
1170.60,5.8
1170.80,5.82
1171.00,5.82
1171.20,5.79
1171.40,5.838
1171.60,5.828
1171.80,5.784
1172.00,5.848
1172.20,5.804
1172.40,5.83
1172.60,5.866
1172.80,5.782
1173.00,5.836
1173.20,5.836
1173.40,5.806
1173.60,5.848
1173.80,5.812
1174.00,5.798
1174.20,5.852
1174.40,5.892
1174.60,5.792
1174.80,5.828
1175.00,5.772
1175.20,5.858
1175.40,5.858
1175.60,5.814
1175.80,5.816
1176.00,5.804
1176.20,5.826
1176.40,5.86
1176.60,5.8
1176.80,5.778
1177.00,5.83
1177.20,5.812
1177.40,5.826
1177.60,5.848
1177.80,5.844
1178.00,5.834
1178.20,5.826
1178.40,5.798
1178.60,5.834
1178.80,5.794
1179.00,5.77
1179.20,5.85
1179.40,5.812
1179.60,5.85
1179.80,5.822
1180.00,5.816
1180.20,5.844
1180.40,5.836
1180.60,5.77
1180.80,5.814
1181.00,5.826
1181.20,5.858
1181.40,5.812
1181.60,5.842
1181.80,5.812
1182.00,5.798
1182.20,5.822
1182.40,5.804
1182.60,5.806
1182.80,5.962
1183.00,5.734
1183.20,5.834
1183.40,5.838
1183.60,5.826
1183.80,5.812
1184.00,5.776
1184.20,5.806
1184.40,5.866
1184.60,5.806
1184.80,5.82
1185.00,5.812
1185.20,5.816
1185.40,5.866
1185.60,5.814
1185.80,5.808
1186.00,5.838
1186.20,5.812
1186.40,5.836
1186.60,5.812
1186.80,5.852
1187.00,5.836
1187.20,5.82
1187.40,5.776
1187.60,5.826
1187.80,5.842
1188.00,5.8
1188.20,5.866
1188.40,5.792
1188.60,5.82
1188.80,5.806
1189.00,5.828
1189.20,5.808
1189.40,5.828
1189.60,5.844
1189.80,5.814
1190.00,5.814
1190.20,5.844
1190.40,5.838
1190.60,5.808
1190.80,5.816
1191.00,5.856
1191.20,5.816
1191.40,5.792
1191.80,5.856
1192.00,5.834
1192.20,5.878
1192.40,5.826
1192.60,5.822
1192.80,5.792
1193.00,5.804
1193.20,5.828
1193.40,5.848
1193.60,5.866
1193.80,5.782
1194.00,5.828
1194.20,5.82
1194.40,5.826
1194.60,5.798
1194.80,5.848
1195.00,5.842
1195.20,5.86
1195.40,5.798
1195.60,5.848
1195.80,5.798
1196.00,5.83
1196.20,5.83
1196.40,5.838
1196.60,5.814
1196.80,5.83
1197.00,5.844
1197.20,5.838
1197.40,5.814
1197.60,5.812
1197.80,5.806
1198.00,5.86
1198.20,5.742
1198.40,5.88
1198.60,5.778
1198.80,5.836
1199.00,5.836
1199.20,5.804
1199.40,5.836
1199.60,5.806
1199.80,5.798
1200.00,5.83
1200.20,5.816
1200.40,5.822
1200.60,5.828
1200.80,5.834
1201.00,5.874
1201.20,5.804
1201.40,5.83
1201.60,5.798
1201.80,5.826
1202.00,5.836
1202.20,5.834
1202.40,5.812
1202.60,5.806
1202.80,5.858
1203.00,5.794
1203.20,5.772
1203.40,5.842
1203.60,5.816
1203.80,5.848
1204.00,5.806
1204.20,5.822
1204.40,5.85
1204.60,5.826
1204.80,5.822
1205.00,5.808
1205.20,5.834
1205.40,5.826
1205.60,5.806
1205.80,5.842
1206.00,5.742
1206.20,5.88
1206.40,5.842
1206.60,5.844
1206.80,5.82
1207.00,5.804
1207.20,5.816
1207.40,5.858
1207.60,5.79
1207.80,5.806
1208.00,5.838
1208.20,5.87
1208.40,5.864
1208.60,5.804
1208.80,5.812
1209.00,5.808
1209.20,5.804
1209.40,5.87
1209.60,5.866
1209.80,5.848
1210.00,5.816
1210.20,5.822
1210.40,5.812
1210.60,5.808
1210.80,5.814
1211.00,5.826
1211.20,5.822
1211.40,5.822
1211.60,5.864
1211.80,5.826
1212.00,5.828
1212.20,5.792
1212.40,5.816
1212.60,5.86
1212.80,5.79
1213.00,5.804
1213.20,5.866
1213.40,5.836
1213.60,5.816
1213.80,5.778
1214.00,5.792
1214.20,5.828
1214.40,5.85
1214.60,5.844
1214.80,5.804
1215.00,5.85
1215.20,5.808
1215.40,5.808
1215.60,5.844
1215.80,5.786
1216.00,5.922
1216.20,5.764
1216.40,5.798
1216.60,5.872
1216.80,5.808
1217.00,5.834
1217.20,5.8
1217.40,5.83
1217.60,5.8
1217.80,5.816
1218.00,5.82
1218.20,5.844
1218.40,5.822
1218.60,5.848
1218.80,5.826
1219.00,5.808
1219.20,5.814
1219.40,5.838
1219.60,5.886
1219.80,5.806
1220.00,5.808
1220.20,5.816
1220.40,5.83
1220.60,5.808
1220.80,5.812
1221.00,5.826
1221.20,5.826
1221.40,5.794
1221.60,5.85
1221.80,5.806
1222.00,5.814
1222.20,5.816
1222.40,5.86
1222.60,5.848
1222.80,5.792
1223.00,5.804
1223.20,5.83
1223.40,5.816
1223.60,5.86
1223.80,5.82
1224.00,5.808
1224.20,5.822
1224.40,5.772
1224.60,5.808
1224.80,5.812
1225.00,5.826
1225.20,5.844
1225.40,5.858
1225.60,5.784
1225.80,5.842
1226.00,5.826
1226.20,5.826
1226.40,5.826
1226.60,5.828
1226.80,5.814
1227.00,5.834
1227.20,5.82
1227.40,5.834
1227.60,5.806
1227.80,5.814
1228.00,5.85
1228.20,5.79
1228.40,5.812
1228.60,5.838
1228.80,5.806
1229.00,5.858
1229.20,5.828
1229.40,5.826
1229.60,5.848
1229.80,5.77
1230.00,5.79
1230.20,5.82
1230.40,5.812
1230.60,5.864
1230.80,5.792
1231.00,5.812
1231.20,5.804
1231.40,5.838
1231.60,5.83
1231.80,5.858
1232.00,5.794
1232.20,5.82
1232.40,5.794
1232.60,5.8
1232.80,5.848
1233.00,5.828
1233.20,5.85
1233.40,5.838
1233.60,5.786
1233.80,5.806
1234.00,5.938
1234.20,5.684
1234.40,5.812
1234.60,5.834
1234.80,5.866
1235.00,5.828
1235.20,5.828
1235.40,5.85
1235.60,5.784
1235.80,5.878
1236.00,5.79
1236.20,5.856
1236.40,5.804
1236.60,5.83
1236.80,5.792
1237.00,5.812
1237.20,5.826
1237.40,5.864
1237.60,5.826
1237.80,5.83
1238.00,5.806
1238.20,5.804
1238.40,5.814
1238.60,5.828
1238.80,5.822
1239.00,5.814
1239.20,5.808
1239.40,5.826
1239.60,5.822
1239.80,5.842
1240.00,5.82
1240.20,5.828
1240.40,5.834
1240.60,5.844
1240.80,5.786
1241.00,5.842
1241.20,5.812
1241.40,5.804
1241.60,5.836
1241.80,5.838
1242.00,5.792
1242.20,5.826
1242.40,5.812
1242.60,5.844
1242.80,5.798
1243.00,5.858
1243.20,5.828
1243.40,5.8
1243.60,5.808
1243.80,5.85
1244.00,5.812
1244.20,5.844
1244.40,5.798
1244.60,5.838
1244.80,5.784
1245.00,5.892
1245.20,5.8
1245.40,5.808
1245.60,5.828
1245.80,5.842
1246.00,5.804
1246.20,5.814
1246.40,5.88
1246.60,5.82
1246.80,5.82
1247.00,5.836
1247.20,5.828
1247.40,5.826
1247.60,5.826
1247.80,5.816
1248.00,5.804
1248.20,5.822
1248.40,5.844
1248.60,5.816
1248.80,5.866
1249.00,5.814
1249.20,5.792
1249.40,5.842
1249.60,5.816
1249.80,5.822
1250.00,5.842
1250.20,5.8
1250.40,5.85
1250.60,5.834
1250.80,5.814
1251.00,5.82
1251.20,5.798
1251.40,5.858
1251.60,5.83
1251.80,5.792
1252.00,5.94
1252.20,5.716
1252.40,5.826
1252.60,5.808
1252.80,5.798
1253.00,5.834
1253.20,5.816
1253.40,5.826
1253.60,5.814
1253.80,5.8
1254.00,5.858
1254.20,5.82
1254.40,5.798
1254.60,5.834
1254.80,5.828
1255.00,5.822
1255.20,5.776
1255.40,5.848
1255.60,5.826
1255.80,5.782
1256.00,5.816
1256.20,5.844
1256.40,5.826
1256.60,5.848
1256.80,5.82
1257.00,5.816
1257.20,5.858
1257.40,5.82
1257.60,5.826
1257.80,5.838
1258.00,5.848
1258.20,5.726
1258.40,5.844
1258.60,5.872
1258.80,5.848
1259.00,5.816
1259.20,5.804
1259.40,5.836
1259.60,5.834
1259.80,5.836
1260.00,5.814
1260.20,5.79
1260.40,5.806
1260.60,5.856
1260.80,5.79
1261.00,5.806
1261.20,5.804
1261.40,5.844
1261.60,5.836
1261.80,5.806
1262.00,5.836
1262.20,5.844
1262.40,5.856
1262.60,5.836
1262.80,5.83
1263.00,5.838
1263.20,5.8
1263.40,5.8
1263.60,5.842
1263.80,5.804
1264.00,5.858
1264.20,5.834
1264.40,5.808
1264.60,5.834
1264.80,5.814
1265.00,5.826
1265.20,5.826
1265.40,5.798
1265.60,5.848
1265.80,5.85
1266.00,5.812
1266.20,5.826
1266.40,5.822
1266.60,5.782
1266.80,5.784
1267.00,5.872
1267.20,5.826
1267.40,5.828
1267.60,5.794
1267.80,5.816
1268.00,5.814
1268.20,5.822
1268.40,5.82
1268.60,5.836
1268.80,5.806
1269.00,5.814
1269.20,5.776
1269.40,5.838
1269.60,5.83
1269.80,5.844
1270.00,5.902
1270.20,5.734
1270.40,5.814
1270.60,5.834
1270.80,5.798
1271.00,5.826
1271.20,5.812
1271.40,5.878
1271.60,5.792
1271.80,5.82
1272.00,5.816
1272.20,5.806
1272.40,5.782
1272.60,5.792
1272.80,5.834
1273.00,5.83
1273.20,5.828
1273.40,5.804
1273.60,5.844
1273.80,5.822
1274.00,5.838
1274.20,5.836
1274.40,5.828
1274.60,5.804
1274.80,5.848
1275.00,5.808
1275.20,5.848
1275.40,5.836
1275.60,5.814
1275.80,5.848
1276.00,5.806
1276.20,5.838
1276.40,5.794
1276.60,5.858
1276.80,5.82
1277.00,5.816
1277.20,5.826
1277.40,5.82
1277.60,5.798
1277.80,5.852
1278.00,5.804
1278.20,5.838
1278.40,5.856
1278.60,5.82
1278.80,5.812
1279.00,5.798
1279.20,5.812
1279.40,5.834
1279.60,5.844
1279.80,5.798
1280.00,5.85
1280.20,5.82
1280.40,5.838
1280.60,5.852
1280.80,5.82
1281.00,5.816
1281.20,5.754
1281.40,5.848
1281.60,5.83
1281.80,5.814
1282.00,5.804
1282.20,5.842
1282.40,5.828
1282.60,5.848
1282.80,5.836
1283.00,5.834
1283.20,5.82
1283.40,5.798
1283.60,5.834
1283.80,5.808
1284.00,5.828
1284.20,5.822
1284.40,5.858
1284.60,5.812
1284.80,5.816
1285.00,5.826
1285.20,5.772
1285.40,5.856
1285.60,5.82
1285.80,5.83
1286.00,5.814
1286.20,5.804
1286.40,5.86
1286.60,5.8
1286.80,5.814
1287.00,5.814
1287.20,5.844
1287.40,5.866
1287.60,5.816
1287.80,5.812
1288.00,5.904
1288.20,5.762
1288.40,5.79
1288.60,5.812
1288.80,5.856
1289.00,5.808
1289.20,5.79
1289.40,5.828
1289.60,5.842
1289.80,5.822
1290.00,5.828
1290.20,5.814
1290.40,5.826
1290.60,5.834
1290.80,5.838
1291.00,5.852
1291.20,5.814
1291.40,5.842
1291.60,5.786
1291.80,5.814
1292.00,5.86
1292.20,5.83
1292.40,5.826
1292.60,5.842
1292.80,5.87
1293.00,5.776
1293.20,5.848
1293.40,5.798
1293.60,5.83
1293.80,5.882
1294.00,5.786
1294.20,5.83
1294.40,5.822
1294.60,5.826
1294.80,5.83
1295.00,5.814
1295.20,5.826
1295.40,5.834
1295.60,5.838
1295.80,5.822
1296.00,5.804
1296.20,5.82
1296.40,5.794
1296.60,5.83
1296.80,5.826
1297.00,5.834
1297.20,5.804
1297.40,5.872
1297.60,5.814
1297.80,5.848
1298.00,5.8
1298.20,5.848
1298.40,5.826
1298.60,5.842
1298.80,5.816
1299.00,5.798
1299.20,5.814
1299.40,5.844
1299.60,5.848
1299.80,5.828
1300.00,5.79
1300.20,5.82
1300.40,5.83
1300.60,5.872
1300.80,5.826
1301.00,5.778
1301.20,5.856
1301.40,5.816
1301.60,5.834
1301.80,5.834
1302.00,5.764
1302.20,5.864
1302.40,5.816
1302.60,5.864
1302.80,5.826
1303.00,5.814
1303.20,5.806
1303.40,5.806
1303.60,5.786
1303.80,5.834
1304.00,5.826
1304.20,5.844
1304.40,5.844
1304.60,5.826
1304.80,5.814
1305.00,5.822
1305.20,5.826
1305.40,5.794
1305.60,5.848
1305.80,5.822
1306.00,5.896
1306.20,5.754
1306.40,5.826
1306.60,5.782
1306.80,5.828
1307.00,5.82
1307.20,5.848
1307.40,5.878
1307.60,5.804
1307.80,5.812
1308.00,5.778
1308.20,5.844
1308.40,5.834
1308.60,5.828
1308.80,5.864
1309.00,5.836
1309.20,5.808
1309.40,5.848
1309.60,5.776
1309.80,5.814
1310.00,5.844
1310.20,5.826
1310.40,5.842
1310.60,5.88
1310.80,5.826
1311.00,5.814
1311.20,5.806
1311.40,5.814
1311.60,5.834
1311.80,5.804
1312.00,5.794
1312.20,5.852
1312.40,5.826
1312.60,5.82
1312.80,5.812
1313.00,5.834
1313.20,5.848
1313.40,5.794
1313.60,5.794
1313.80,5.848
1314.00,5.812
1314.20,5.86
1314.40,5.794
1314.60,5.82
1314.80,5.814
1315.00,5.836
1315.20,5.816
1315.40,5.826
1315.60,5.768
1315.80,5.856
1316.00,5.85
1316.20,5.798
1316.40,5.794
1316.60,5.85
1316.80,5.828
1317.00,5.814
1317.20,5.83
1317.40,5.792
1317.60,5.808
1317.80,5.806
1318.00,5.86
1318.20,5.838
1318.40,5.798
1318.60,5.834
1318.80,5.82
1319.00,5.842
1319.20,5.804
1319.40,5.794
1319.60,5.83
1319.80,5.826
1320.00,5.804
1320.20,5.852
1320.40,5.816
1320.60,5.826
1320.80,5.836
1321.00,5.826
1321.20,5.794
1321.40,5.806
1321.60,5.838
1321.80,5.838
1322.00,5.812
1322.20,5.826
1322.40,5.816
1322.60,5.828
1322.80,5.798
1323.00,5.798
1323.20,5.82
1323.40,5.886
1323.60,5.814
1323.80,5.812
1324.00,5.882
1324.20,5.768
1324.40,5.828
1324.60,5.816
1324.80,5.806
1325.00,5.814
1325.20,5.826
1325.40,5.878
1325.60,5.812
1325.80,5.836
1326.00,5.806
1326.20,5.838
1326.40,5.82
1326.60,5.826
1326.80,5.8
1327.00,5.842
1327.20,5.83
1327.40,5.842
1327.60,5.816
1327.80,5.848
1328.00,5.834
1328.20,5.826
1328.40,5.816
1328.60,5.812
1328.80,5.782
1329.00,5.85
1329.20,5.826
1329.40,5.814
1329.60,5.848
1329.80,5.804
1330.00,5.816
1330.20,5.85
1330.40,5.838
1330.60,5.806
1330.80,5.786
1331.00,5.872
1331.20,5.784
1331.40,5.842
1331.60,5.808
1331.80,5.83
1332.00,5.808
1332.20,5.83
1332.40,5.842
1332.60,5.784
1332.80,5.784
1333.00,5.848
1333.20,5.822
1333.40,5.842
1333.60,5.844
1333.80,5.85
1334.00,5.8
1334.20,5.808
1334.40,5.834
1334.60,5.806
1334.80,5.852
1335.00,5.794
1335.20,5.816
1335.40,5.794
1335.60,5.834
1335.80,5.828
1336.00,5.806
1336.20,5.83
1336.40,5.782
1336.60,5.816
1336.80,5.864
1337.00,5.836
1337.20,5.822
1337.40,5.85
1337.60,5.764
1337.80,5.82
1338.00,5.806
1338.20,5.83
1338.40,5.808
1338.60,5.816
1338.80,5.834
1339.00,5.812
1339.20,5.844
1339.40,5.792
1339.60,5.822
1339.80,5.842
1340.00,5.828
1340.20,5.856
1340.40,5.814
1340.60,5.828
1340.80,5.826
1341.00,5.856
1341.20,5.798
1341.40,5.844
1341.60,5.782
1341.80,5.85
1342.00,5.958
1342.20,5.704
1342.40,5.814
1342.60,5.816
1342.80,5.87
1343.00,5.806
1343.20,5.784
1343.40,5.856
1343.60,5.82
1343.80,5.778
1344.00,5.838
1344.20,5.836
1344.40,5.822
1344.60,5.848
1344.80,5.828
1345.00,5.812
1345.20,5.808
1345.40,5.844
1345.60,5.856
1345.80,5.798
1346.00,5.852
1346.20,5.848
1346.40,5.82
1346.60,5.822
1346.80,5.834
1347.00,5.82
1347.20,5.83
1347.40,5.842
1347.60,5.812
1347.80,5.822
1348.00,5.79
1348.20,5.786
1348.40,5.892
1348.60,5.856
1348.80,5.806
1349.00,5.804
1349.20,5.806
1349.40,5.784
1349.60,5.864
1349.80,5.778
1350.00,5.83
1350.20,5.836
1350.40,5.864
1350.60,5.834
1350.80,5.826
1351.00,5.794
1351.20,5.826
1351.40,5.816
1351.60,5.836
1351.80,5.852
1352.00,5.826
1352.20,5.806
1352.40,5.842
1352.60,5.814
1352.80,5.842
1353.00,5.816
1353.20,5.826
1353.40,5.848
1353.60,5.812
1353.80,5.842
1354.00,5.79
1354.20,5.806
1354.40,5.812
1354.60,5.814
1354.80,5.87
1355.00,5.822
1355.20,5.852
1355.40,5.816
1355.60,5.798
1355.80,5.798
1356.00,5.858
1356.20,5.798
1356.40,5.86
1356.60,5.814
1356.80,5.792
1357.00,5.848
1357.20,5.804
1357.40,5.808
1357.60,5.848
1357.80,5.874
1358.00,5.794
1358.20,5.82
1358.40,5.826
1358.60,5.848
1358.80,5.826
1359.00,5.804
1359.20,5.812
1359.40,5.804
1359.60,5.836
1359.80,5.85
1360.00,5.91
1360.20,5.77
1360.40,5.83
1360.60,5.804
1360.80,5.836
1361.00,5.816
1361.20,5.814
1361.40,5.858
1361.60,5.804
1361.80,5.83
1362.00,5.814
1362.20,5.822
1362.40,5.834
1362.60,5.828
1362.80,5.792
1363.00,5.848
1363.20,5.85
1363.40,5.8
1363.60,5.814
1363.80,5.842
1364.00,5.806
1364.20,5.826
1364.40,5.784
1364.60,5.848
1364.80,5.828
1365.00,5.786
1365.20,5.858
1365.40,5.806
1365.60,5.828
1365.80,5.816
1366.00,5.82
1366.20,5.772
1366.40,5.816
1366.60,5.822
1366.80,5.82
1367.00,5.83
1367.20,5.844
1367.40,5.83
1367.60,5.804
1367.80,5.852
1368.00,5.79
1368.20,5.842
1368.40,5.822
1368.60,5.814
1368.80,5.82
1369.00,5.82
1369.20,5.794
1369.40,5.826
1369.60,5.844
1369.80,5.816
1370.00,5.826
1370.20,5.792
1370.40,5.842
1370.60,5.838
1370.80,5.812
1371.00,5.808
1371.20,5.82
1371.40,5.814
1371.60,5.794
1371.80,5.814
1372.00,5.844
1372.20,5.826
1372.40,5.83
1372.60,5.822
1372.80,5.8
1373.00,5.842
1373.20,5.816
1373.40,5.798
1373.60,5.79
1373.80,5.882
1374.00,5.87
1374.20,5.826
1374.40,5.814
1374.60,5.826
1374.80,5.826
1375.00,5.794
1375.20,5.842
1375.40,5.804
1375.60,5.82
1375.80,5.83
1376.00,5.842
1376.20,5.842
1376.40,5.83
1376.60,5.804
1376.80,5.82
1377.00,5.786
1377.20,5.8
1377.40,5.858
1377.60,5.782
1377.80,5.856
1378.00,5.932
1378.20,5.72
1378.40,5.814
1378.60,5.856
1378.80,5.798
1379.00,5.806
1379.20,5.826
1379.40,5.792
1379.60,5.828
1379.80,5.828
1380.00,5.842
1380.20,5.85
1380.40,5.83
1380.60,5.82
1380.80,5.83
1381.00,5.806
1381.20,5.82
1381.40,5.814
1381.60,5.848
1381.80,5.836
1382.00,5.812
1382.20,5.794
1382.40,5.848
1382.60,5.792
1382.80,5.786
1383.00,5.856
1383.20,5.804
1383.40,5.834
1383.60,5.842
1383.80,5.864
1384.00,5.768
1384.20,5.804
1384.40,5.806
1384.60,5.874
1384.80,5.804
1385.00,5.836
1385.20,5.836
1385.40,5.822
1385.60,5.85
1385.80,5.816
1386.00,5.798
1386.20,5.872
1386.40,5.792
1386.60,5.834
1386.80,5.82
1387.00,5.792
1387.20,5.806
1387.40,5.82
1387.60,5.826
1387.80,5.842
1388.00,5.79
1388.20,5.848
1388.40,5.808
1388.60,5.82
1388.80,5.864
1389.00,5.836
1389.20,5.798
1389.40,5.826
1389.60,5.85
1389.80,5.848
1390.00,5.808
1390.20,5.786
1390.40,5.828
1390.60,5.834
1390.80,5.836
1391.00,5.836
1391.20,5.79
1391.40,5.878
1391.60,5.85
1391.80,5.858
1392.00,5.808
1392.20,5.792
1392.40,5.83
1392.60,5.826
1392.80,5.82
1393.00,5.848
1393.20,5.836
1393.40,5.844
1393.60,5.822
1393.80,5.808
1394.00,5.786
1394.20,5.86
1394.40,5.834
1394.60,5.826
1394.80,5.792
1395.00,5.828
1395.20,5.808
1395.40,5.844
1395.60,5.814
1395.80,5.848
1396.00,5.864
1396.20,5.792
1396.40,5.844
1396.60,5.8
1396.80,5.806
1397.00,5.83
1397.20,5.814
1397.40,5.806
1397.60,5.828
1397.80,5.83
1398.00,5.856
1398.20,5.794
1398.40,5.874
1398.60,5.77
1398.80,5.834
1399.00,5.8
1399.20,5.816
1399.40,5.828
1399.60,5.83
1399.80,5.804
1400.00,5.808
1400.20,5.85
1400.40,5.804
1400.60,5.836
1400.80,5.816
1401.00,5.782
1401.20,5.838
1401.40,5.82
1401.60,5.866
1401.80,5.83
1402.00,5.85
1402.20,5.784
1402.40,5.792
1402.60,5.848
1402.80,5.844
1403.00,5.826
1403.20,5.822
1403.40,5.816
1403.60,5.798
1403.80,5.864
1404.00,5.806
1404.20,5.844
1404.40,5.828
1404.60,5.792
1404.80,5.808
1405.00,5.836
1405.20,5.83
1405.40,5.848
1405.60,5.804
1405.80,5.844
1406.00,5.83
1406.20,5.826
1406.40,5.828
1406.60,5.826
1406.80,5.806
1407.00,5.808
1407.20,5.834
1407.40,5.82
1407.60,5.838
1407.80,5.79
1408.00,5.812
1408.20,5.828
1408.40,5.844
1408.60,5.794
1408.80,5.844
1409.00,5.814
1409.20,5.828
1409.40,5.826
1409.60,5.816
1409.80,5.838
1410.00,5.838
1410.20,5.858
1410.40,5.8
1410.60,5.828
1410.80,5.8
1411.00,5.842
1411.20,5.814
1411.40,5.776
1411.60,5.86
1411.80,5.852
1412.00,5.776
1412.20,5.836
1412.40,5.816
1412.60,5.778
1412.80,5.856
1413.00,5.852
1413.20,5.828
1413.40,5.858
1413.60,5.83
1413.80,5.804
1414.00,5.894
1414.20,5.716
1414.40,5.866
1414.60,5.804
1414.80,5.842
1415.00,5.836
1415.20,5.814
1415.40,5.816
1415.60,5.812
1415.80,5.856
1416.00,5.836
1416.20,5.8
1416.40,5.812
1416.60,5.848
1416.80,5.858
1417.00,5.778
1417.20,5.842
1417.40,5.8
1417.60,5.814
1417.80,5.844
1418.00,5.848
1418.20,5.782
1418.40,5.864
1418.60,5.816
1418.80,5.842
1419.00,5.836
1419.20,5.746
1419.40,5.83
1419.60,5.822
1419.80,5.872
1420.00,5.816
1420.20,5.79
1420.40,5.798
1420.60,5.844
1420.80,5.852
1421.00,5.848
1421.20,5.822
1421.40,5.808
1421.60,5.844
1421.80,5.762
1422.00,5.882
1422.20,5.8
1422.40,5.83
1422.60,5.826
1422.80,5.864
1423.00,5.77
1423.20,5.804
1423.40,5.79
1423.60,5.848
1423.80,5.844
1424.00,5.792
1424.20,5.882
1424.40,5.806
1424.60,5.816
1424.80,5.842
1425.00,5.806
1425.20,5.836
1425.40,5.866
1425.60,5.836
1425.80,5.764
1426.00,5.816
1426.20,5.83
1426.40,5.87
1426.60,5.82
1426.80,5.798
1427.00,5.826
1427.20,5.79
1427.40,5.844
1427.60,5.83
1427.80,5.83
1428.00,5.872
1428.20,5.828
1428.40,5.8
1428.60,5.8
1428.80,5.826
1429.00,5.804
1429.20,5.82
1429.40,5.844
1429.60,5.83
1429.80,5.844
1430.00,5.844
1430.20,5.812
1430.40,5.816
1430.60,5.776
1430.80,5.834
1431.00,5.852
1431.20,5.806
1431.40,5.852
1431.60,5.842
1431.80,5.844
1432.00,5.894
1432.20,5.76
1432.40,5.816
1432.60,5.798
1432.80,5.82
1433.00,5.816
1433.20,5.794
1433.40,5.858
1433.60,5.85
1433.80,5.798
1434.00,5.838
1434.20,5.798
1434.40,5.828
1434.60,5.814
1434.80,5.842
1435.00,5.804
1435.20,5.778
1435.40,5.838
1435.60,5.844
1435.80,5.826
1436.00,5.874
1436.20,5.816
1436.40,5.776
1436.60,5.8
1436.80,5.82
1437.00,5.826
1437.20,5.836
1437.40,5.812
1437.60,5.848
1437.80,5.826
1438.00,5.834
1438.20,5.814
1438.40,5.844
1438.60,5.778
1438.80,5.83
1439.00,5.858
1439.20,5.828
1439.40,5.798
1439.60,5.8
1439.80,5.838
1440.00,5.786
1440.20,5.836
1440.40,5.834
1440.60,5.792
1440.80,5.828
1441.00,5.826
1441.20,5.804
1441.40,5.826
1441.60,5.826
1441.80,5.826
1442.00,5.804
1442.20,5.814
1442.40,5.828
1442.60,5.878
1442.80,5.782
1443.00,5.786
1443.20,5.814
1443.40,5.866
1443.60,5.816
1443.80,5.85
1444.00,5.826
1444.20,5.86
1444.40,5.778
1444.60,5.848
1444.80,5.794
1445.00,5.814
1445.20,5.852
1445.40,5.85
1445.60,5.808
1445.80,5.782
1446.00,5.834
1446.20,5.836
1446.40,5.844
1446.60,5.822
1446.80,5.812
1447.00,5.836
1447.20,5.838
1447.40,5.834
1447.60,5.828
1447.80,5.798
1448.00,5.826
1448.20,5.804
1448.40,5.844
1448.60,5.814
1448.80,5.806
1449.00,5.782
1449.20,5.814
1449.40,5.848
1449.60,5.836
1449.80,5.82
1450.00,5.926
1450.20,5.764
1450.40,5.838
1450.60,5.798
1450.80,5.834
1451.00,5.828
1451.20,5.782
1451.40,5.786
1451.60,5.896
1451.80,5.756
1452.00,5.836
1452.20,5.794
1452.40,5.842
1452.60,5.786
1452.80,5.848
1453.00,5.814
1453.20,5.858
1453.40,5.814
1453.60,5.858
1453.80,5.822
1454.00,5.778
1454.20,5.816
1454.40,5.842
1454.60,5.838
1454.80,5.82
1455.00,5.836
1455.20,5.816
1455.40,5.816
1455.60,5.794
1455.80,5.83
1456.00,5.778
1456.20,5.866
1456.40,5.82
1456.60,5.856
1456.80,5.812
1457.00,5.806
1457.20,5.834
1457.40,5.826
1457.60,5.798
1457.80,5.806
1458.00,5.838
1458.20,5.844
1458.40,5.842
1458.60,5.812
1458.80,5.822
1459.00,5.806
1459.20,5.844
1459.40,5.856
1459.60,5.804
1459.80,5.79
1460.00,5.786
1460.20,5.872
1460.40,5.82
1460.60,5.836
1460.80,5.8
1461.00,5.8
1461.20,5.852
1461.40,5.82
1461.60,5.836
1461.80,5.828
1462.00,5.812
1462.20,5.808
1462.40,5.864
1462.60,5.806
1462.80,5.848
1463.00,5.816
1463.20,5.782
1463.40,5.848
1463.60,5.794
1463.80,5.882
1464.00,5.764
1464.20,5.812
1464.40,5.838
1464.60,5.816
1464.80,5.812
1465.00,5.838
1465.20,5.784
1465.40,5.844
1465.60,5.826
1465.80,5.85
1466.00,5.786
1466.20,5.842
1466.40,5.814
1466.60,5.806
1466.80,5.786
1467.00,5.836
1467.20,5.814
1467.40,5.85
1467.60,5.808
1467.80,5.826
1468.00,5.882
1468.20,5.74
1468.40,5.816
1468.60,5.842
1468.80,5.786
1469.00,5.844
1469.20,5.844
1469.40,5.826
1469.60,5.822
1469.80,5.828
1470.00,5.794
1470.20,5.844
1470.40,5.814
1470.60,5.852
1470.80,5.836
1471.00,5.82
1471.20,5.8
1471.40,5.808
1471.60,5.852
1471.80,5.808
1472.00,5.806
1472.20,5.814
1472.40,5.806
1472.60,5.85
1472.80,5.814
1473.00,5.808
1473.20,5.828
1473.40,5.804
1473.60,5.826
1473.80,5.798
1474.00,5.844
1474.20,5.842
1474.40,5.8
1474.60,5.844
1474.80,5.834
1475.00,5.816
1475.20,5.842
1475.40,5.852
1475.60,5.812
1475.80,5.816
1476.00,5.826
1476.20,5.834
1476.40,5.806
1476.60,5.812
1476.80,5.844
1477.00,5.826
1477.20,5.814
1477.40,5.836
1477.60,5.822
1477.80,5.804
1478.00,5.836
1478.20,5.852
1478.40,5.822
1478.60,5.848
1478.80,5.826
1479.00,5.836
1479.20,5.806
1479.40,5.798
1479.60,5.826
1479.80,5.786
1480.00,5.842
1480.20,5.82
1480.40,5.792
1480.60,5.86
1480.80,5.768
1481.00,5.842
1481.20,5.838
1481.40,5.836
1481.60,5.798
1481.80,5.836
1482.00,5.822
1482.20,5.82
1482.40,5.826
1482.60,5.864
1482.80,5.812
1483.00,5.804
1483.20,5.798
1483.40,5.864
1483.60,5.79
1483.80,5.836
1484.00,5.852
1484.20,5.82
1484.40,5.756
1484.60,5.836
1484.80,5.82
1485.00,5.816
1485.20,5.822
1485.40,5.79
1485.60,5.848
1485.80,5.822
1486.00,5.958
1486.20,5.748
1486.40,5.772
1486.60,5.812
1486.80,5.816
1487.00,5.838
1487.20,5.838
1487.40,5.822
1487.60,5.858
1487.80,5.858
1488.00,5.8
1488.20,5.77
1488.40,5.826
1488.60,5.816
1488.80,5.816
1489.00,5.83
1489.20,5.794
1489.40,5.828
1489.60,5.826
1489.80,5.806
1490.00,5.882
1490.20,5.804
1490.40,5.808
1490.60,5.828
1490.80,5.772
1491.00,5.804
1491.20,5.838
1491.40,5.786
1491.60,5.87
1492.00,5.834
1492.20,5.79
1492.40,5.828
1492.60,5.85
1492.80,5.852
1493.00,5.812
1493.20,5.812
1493.40,5.808
1493.60,5.814
1493.80,5.852
1494.00,5.776
1494.20,5.844
1494.40,5.838
1494.60,5.866
1494.80,5.812
1495.00,5.8
1495.20,5.814
1495.40,5.848
1495.60,5.776
1495.80,5.816
1496.00,5.864
1496.20,5.842
1496.40,5.812
1496.60,5.82
1496.80,5.83
1497.00,5.844
1497.20,5.798
1497.40,5.79
1497.60,5.838
1497.80,5.852
1498.00,5.828
1498.20,5.784
1498.40,5.792
1498.60,5.826
1498.80,5.812
1499.00,5.842
1499.20,5.852
1499.40,5.828
1499.60,5.86
1499.80,5.806
1500.00,5.848
1500.20,5.768
1500.40,5.826
1500.60,5.842
1500.80,5.828
1501.00,5.79
1501.20,5.882
1501.40,5.75
1501.60,5.792
1501.80,5.86
1502.00,5.834
1502.20,5.826
1502.40,5.836
1502.60,5.812
1502.80,5.822
1503.00,5.794
1503.20,5.814
1503.40,5.816
1503.60,5.844
1503.80,5.82
1504.00,5.826
1504.20,5.834
1504.40,5.798
1504.60,5.828
1504.80,5.814
1505.00,5.844
1505.20,5.848
1505.40,5.8
1505.60,5.8
1505.80,5.83
1506.00,5.834
1506.20,5.852
1506.40,5.782
1506.60,5.806
1506.80,5.826
1507.00,5.816
1507.20,5.828
1507.40,5.842
1507.60,5.842
1507.80,5.856
1508.00,5.806
1508.20,5.838
1508.40,5.842
1508.60,5.804
1508.80,5.784
1509.00,5.782
1509.20,5.848
1509.40,5.842
1509.60,5.828
1509.80,5.808
1510.00,5.872
1510.20,5.836
1510.40,5.826
1510.60,5.778
1510.80,5.828
1511.00,5.816
1511.20,5.848
1511.40,5.826
1511.60,5.808
1511.80,5.812
1512.00,5.812
1512.20,5.844
1512.40,5.826
1512.60,5.806
1512.80,5.836
1513.00,5.79
1513.20,5.83
1513.40,5.856
1513.60,5.822
1513.80,5.814
1514.00,5.806
1514.20,5.82
1514.40,5.826
1514.60,5.828
1514.80,5.79
1515.00,5.836
1515.20,5.82
1515.40,5.814
1515.60,5.848
1515.80,5.842
1516.00,5.85
1516.20,5.826
1516.40,5.866
1516.60,5.782
1516.80,5.778
1517.00,5.798
1517.20,5.83
1517.40,5.872
1517.60,5.848
1517.80,5.842
1518.00,5.808
1518.20,5.826
1518.40,5.83
1518.60,5.822
1518.80,5.816
1519.00,5.792
1519.20,5.902
1519.40,5.772
1519.60,5.798
1519.80,5.838
1520.00,5.828
1520.20,5.804
1520.40,5.838
1520.60,5.806
1520.80,5.83
1521.00,5.826
1521.20,5.85
1521.40,5.808
1521.60,5.856
1521.80,5.844
1522.00,5.79
1522.20,5.79
1522.40,5.812
1522.60,5.794
1522.80,5.842
1523.00,5.806
1523.20,5.842
1523.40,5.8
1523.60,5.778
1523.80,5.806
1524.00,5.86
1524.20,5.848
1524.40,5.842
1524.60,5.782
1524.80,5.852
1525.00,5.848
1525.20,5.812
1525.40,5.806
1525.60,5.842
1525.80,5.814
1526.00,5.804
1526.20,5.804
1526.40,5.836
1526.60,5.826
1526.80,5.816
1527.00,5.828
1527.20,5.812
1527.40,5.856
1527.60,5.82
1527.80,5.794
1528.00,5.852
1528.20,5.8
1528.40,5.844
1528.60,5.804
1528.80,5.838
1529.00,5.85
1529.20,5.798
1529.40,5.82
1529.60,5.804
1529.80,5.844
1530.00,5.816
1530.20,5.836
1530.40,5.844
1530.60,5.806
1530.80,5.826
1531.00,5.806
1531.20,5.8
1531.40,5.826
1531.60,5.858
1531.80,5.804
1532.00,5.812
1532.20,5.848
1532.40,5.808
1532.60,5.804
1532.80,5.834
1533.00,5.8
1533.20,5.804
1533.40,5.798
1533.60,5.848
1533.80,5.814
1534.00,5.792
1534.20,5.856
1534.40,5.82
1534.60,5.842
1534.80,5.82
1535.00,5.83
1535.20,5.82
1535.40,5.834
1535.60,5.822
1535.80,5.842
1536.00,5.75
1536.20,5.858
1536.40,5.848
1536.60,5.804
1536.80,5.83
1537.00,5.798
1537.20,5.902
1537.40,5.734
1537.60,5.844
1537.80,5.834
1538.00,5.792
1538.20,5.836
1538.40,5.778
1538.60,5.844
1538.80,5.814
1539.00,5.85
1539.20,5.8
1539.40,5.828
1539.60,5.812
1539.80,5.838
1540.00,5.826
1540.20,5.83
1540.40,5.786
1540.60,5.848
1540.80,5.848
1541.00,5.806
1541.20,5.79
1541.40,5.836
1541.60,5.816
1541.80,5.858
1542.00,5.814
1542.20,5.834
1542.40,5.816
1542.60,5.794
1542.80,5.88
1543.00,5.814
1543.20,5.82
1543.40,5.822
1543.60,5.826
1543.80,5.804
1544.00,5.856
1544.20,5.826
1544.40,5.822
1544.60,5.816
1544.80,5.874
1545.00,5.812
1545.20,5.816
1545.40,5.798
1545.60,5.82
1545.80,5.826
1546.00,5.816
1546.20,5.808
1546.40,5.86
1546.60,5.804
1546.80,5.834
1547.00,5.806
1547.20,5.844
1547.40,5.816
1547.60,5.786
1547.80,5.826
1548.00,5.8
1548.20,5.804
1548.40,5.808
1548.60,5.87
1548.80,5.828
1549.00,5.816
1549.20,5.814
1549.40,5.816
1549.60,5.83
1549.80,5.822
1550.00,5.804
1550.20,5.8
1550.40,5.856
1550.60,5.822
1550.80,5.816
1551.00,5.82
1551.20,5.806
1551.40,5.816
1551.60,5.812
1551.80,5.834
1552.00,5.816
1552.20,5.812
1552.40,5.806
1552.60,5.826
1552.80,5.874
1553.00,5.778
1553.20,5.8
1553.40,5.852
1553.60,5.822
1553.80,5.806
1554.00,5.806
1554.20,5.844
1554.40,5.82
1554.60,5.822
1554.80,5.814
1555.00,5.776
1555.20,5.872
1555.40,5.74
1555.60,5.82
1555.80,5.842
1556.00,5.772
1556.20,5.878
1556.40,5.814
1556.60,5.844
1556.80,5.782
1557.00,5.794
1557.20,5.9
1557.40,5.878
1557.60,5.938
1557.80,5.87
1558.00,5.94
1558.20,12.584
1558.40,11.288
1558.60,11.208
1558.80,10.744
1559.00,11.586
1559.20,13.606
1559.40,25.476
1559.60,25.344
1559.80,25.458
1560.00,25.374
1560.20,25.344
1560.40,25.406
1560.60,25.356
1560.80,25.368
1561.00,25.422
1561.20,25.376
1561.40,25.378
1561.60,25.4
1561.80,25.412
1562.00,25.378
1562.20,25.33
1562.40,25.374
1562.60,25.488
1562.80,25.348
1563.00,25.388
1563.20,25.36
1563.40,25.356
1563.60,25.374
1563.80,25.392
1564.00,25.448
1564.20,25.376
1564.40,25.34
1564.60,25.368
1564.80,25.404
1565.00,25.422
1565.20,25.388
1565.40,25.432
1565.60,25.404
1565.80,25.348
1566.00,25.388
1566.20,25.308
1566.40,25.374
1566.60,25.55
1566.80,25.28
1567.00,25.39
1567.20,25.362
1567.40,25.338
1567.60,25.472
1567.80,25.352
1568.00,25.708
1568.20,25.368
1568.40,25.422
1568.60,25.362
1568.80,25.362
1569.00,25.36
1569.20,25.392
1569.40,25.426
1569.60,25.45
1569.80,25.374
1570.00,25.39
1570.20,25.388
1570.40,25.412
1570.60,25.366
1570.80,25.462
1571.00,25.352
1571.20,25.4
1571.40,25.366
1571.60,25.422
1571.80,25.346
1572.00,25.396
1572.20,25.462
1572.40,25.418
1572.60,25.39
1572.80,25.382
1573.00,25.348
1573.20,25.836
1573.40,25.002
1573.60,25.368
1573.80,25.398
1574.00,25.41
1574.20,25.324
1574.40,25.36
1574.60,25.374
1574.80,25.552
1575.00,25.222
1575.20,25.434
1575.40,25.392
1575.60,25.4
1575.80,25.346
1576.00,25.338
1576.20,25.47
1576.40,25.396
1576.60,25.36
1576.80,25.414
1577.00,25.348
1577.20,25.42
1577.40,25.414
1577.60,25.572
1577.80,25.392
1578.00,25.376
1578.20,25.404
1578.40,25.414
1578.60,25.396
1578.80,25.346
1579.00,25.5
1579.20,25.37
1579.40,25.37
1579.60,25.434
1579.80,25.368
1580.00,25.374
1580.20,25.366
1580.40,25.484
1580.60,25.39
1580.80,25.384
1581.00,25.374
1581.20,25.366
1581.40,25.44
1581.60,25.398
1581.80,25.362
1582.00,25.502
1582.20,25.362
1582.40,25.382
1582.60,25.376
1582.80,25.382
1583.00,25.532
1583.20,25.302
1583.40,25.376
1583.60,25.37
1583.80,25.41
1584.00,25.376
1584.20,25.398
1584.40,25.414
1584.60,25.464
1584.80,25.382
1585.00,25.428
1585.20,25.41
1585.40,25.362
1585.60,25.292
1585.80,25.476
1586.00,25.412
1586.20,25.404
1586.40,25.412
1586.60,25.348
1586.80,25.344
1587.00,25.398
1587.20,25.696
1587.40,25.362
1587.60,25.388
1587.80,25.484
1588.00,25.31
1588.20,25.44
1588.40,25.37
1588.60,25.53
1588.80,25.352
1589.00,25.392
1589.20,25.41
1589.40,25.378
1589.60,25.414
1589.80,25.454
1590.00,25.436
1590.20,25.37
1590.40,25.382
1590.60,25.412
1590.80,25.384
1591.00,25.346
1591.20,25.946
1591.40,24.926
1591.60,25.41
1591.80,25.37
1592.00,25.37
1592.20,25.356
1592.40,25.4
1592.60,25.442
1592.80,25.456
1593.00,25.4
1593.20,25.414
1593.40,25.382
1593.60,25.322
1593.80,25.436
1594.00,25.524
1594.20,25.272
1594.40,25.442
1594.60,25.354
1594.80,25.418
1595.00,25.404
1595.20,25.354
1595.40,25.472
1595.60,25.332
1595.80,25.392
1596.00,25.434
1596.20,25.31
1596.40,25.45
1596.60,25.344
1596.80,25.67
1597.00,25.37
1597.20,25.374
1597.40,25.392
1597.60,25.41
1597.80,25.4
1598.00,25.432
1598.20,25.356
1598.40,25.454
1598.60,25.398
1598.80,25.346
1599.00,25.398
1599.20,25.374
1599.40,25.524
1599.60,25.374
1599.80,25.356
1600.00,25.354
1600.20,25.458
1600.40,25.354
1600.60,25.324
1600.80,25.514
1601.00,25.368
1601.20,25.348
1601.40,25.41
1601.60,25.378
1601.80,25.398
1602.00,25.348
1602.20,25.502
1602.40,25.382
1602.60,25.39
1602.80,25.366
1603.00,25.426
1603.20,25.31
1603.40,25.388
1603.60,25.502
1603.80,25.37
1604.00,25.422
1604.20,25.396
1604.40,25.432
1604.60,25.37
1604.80,25.436
1605.00,25.37
1605.20,25.464
1605.40,25.346
1605.60,25.442
1605.80,25.378
1606.00,25.42
1606.20,25.476
1606.40,25.466
1606.60,25.362
1606.80,25.434
1607.00,25.404
1607.20,25.354
1607.40,25.388
1607.60,25.484
1607.80,25.39
1608.00,25.412
1608.20,25.356
1608.40,25.398
1608.60,25.376
1608.80,25.374
1609.00,25.484
1609.20,25.816
1609.40,24.98
1609.60,25.362
1609.80,25.422
1610.00,25.422
1610.20,25.388
1610.40,25.528
1610.60,25.378
1610.80,25.352
1611.00,25.382
1611.20,25.434
1611.40,25.376
1611.60,25.388
1611.80,25.454
1612.00,25.376
1612.20,25.428
1612.40,25.334
1612.60,25.398
1612.80,25.434
1613.00,25.422
1613.20,25.434
1613.40,25.404
1613.60,25.388
1613.80,25.348
1614.00,25.382
1614.20,25.398
1614.40,25.458
1614.60,25.36
1614.80,25.382
1615.00,25.428
1615.20,25.432
1615.40,25.3
1615.60,25.462
1615.80,25.83
1616.00,25.264
1616.20,25.392
1616.40,25.326
1616.60,25.442
1616.80,25.344
1617.00,25.398
1617.20,25.538
1617.40,25.378
1617.60,25.41
1617.80,25.39
1618.00,25.378
1618.20,25.384
1618.40,25.4
1618.60,25.406
1618.80,25.414
1619.00,25.396
1619.20,25.392
1619.40,25.374
1619.60,25.39
1619.80,25.454
1620.00,25.45
1620.20,25.412
1620.40,25.368
1620.60,25.428
1620.80,25.376
1621.00,25.384
1621.20,25.404
1621.40,25.412
1621.60,25.432
1621.80,25.406
1622.00,25.39
1622.20,25.362
1622.40,25.422
1622.60,25.444
1622.80,25.382
1623.00,25.36
1623.20,25.396
1623.40,25.398
1623.60,25.388
1623.80,25.412
1624.00,25.476
1624.20,25.42
1624.40,25.356
1624.60,25.374
1624.80,25.378
1625.00,25.412
1625.20,25.354
1625.40,25.646
1625.60,25.456
1625.80,25.352
1626.00,25.382
1626.20,25.448
1626.40,25.362
1626.60,25.37
1626.80,25.442
1627.00,25.39
1627.20,25.84
1627.40,24.914
1627.60,25.356
1627.80,25.334
1628.00,25.406
1628.20,25.48
1628.40,25.366
1628.60,25.448
1628.80,25.412
1629.00,25.366
1629.20,25.348
1629.40,25.428
1629.60,25.488
1629.80,25.344
1630.00,25.384
1630.20,25.398
1630.40,25.422
1630.60,25.362
1630.80,25.466
1631.00,25.292
1631.20,25.444
1631.40,25.436
1631.60,25.316
1631.80,25.398
1632.00,25.344
1632.20,25.516
1632.40,25.442
1632.60,25.366
1632.80,25.432
1633.00,25.414
1633.20,25.348
1633.40,25.406
1633.60,25.454
1633.80,25.414
1634.00,25.434
1634.20,25.384
1634.40,25.396
1634.60,25.376
1634.80,25.354
1635.00,25.69
1635.20,25.426
1635.40,25.334
1635.60,25.42
1635.80,25.376
1636.00,25.414
1636.20,25.374
1636.40,25.478
1636.60,25.406
1636.80,25.346
1637.00,25.396
1637.20,25.404
1637.40,25.398
1637.60,25.39
1637.80,25.492
1638.00,25.366
1638.20,25.368
1638.40,25.458
1638.60,25.406
1638.80,25.37
1639.00,25.466
1639.20,25.338
1639.40,25.436
1639.60,25.398
1639.80,25.374
1640.00,25.354
1640.20,25.404
1640.40,25.47
1640.60,25.406
1640.80,25.422
1641.00,25.376
1641.20,25.354
1641.40,25.346
1641.60,25.436
1641.80,25.492
1642.00,25.39
1642.20,25.404
1642.40,25.39
1642.60,25.4
1642.80,25.352
1643.00,25.426
1643.20,25.426
1643.40,25.404
1643.60,25.418
1643.80,25.4
1644.00,25.368
1644.20,25.428
1644.40,25.44
1644.60,25.646
1644.80,25.422
1645.00,25.36
1645.20,25.824
1645.40,24.978
1645.60,25.322
1645.80,25.42
1646.00,25.52
1646.20,25.388
1646.40,25.368
1646.60,25.41
1646.80,25.442
1647.00,25.332
1647.20,25.48
1647.40,25.362
1647.60,25.422
1647.80,25.338
1648.00,25.432
1648.20,25.344
1648.40,25.392
1648.60,25.51
1648.80,25.356
1649.00,25.442
1649.20,25.366
1649.40,25.374
1649.60,25.354
1649.80,25.444
1650.00,25.414
1650.20,25.418
1650.40,25.404
1650.60,25.368
1650.80,25.362
1651.00,25.462
1651.20,25.354
1651.40,25.51
1651.60,25.346
1651.80,25.428
1652.00,25.382
1652.20,25.422
1652.40,25.376
1652.60,25.42
1652.80,25.458
1653.00,25.396
1653.20,25.39
1653.40,25.42
1653.60,25.374
1653.80,25.412
1654.00,25.4
1654.20,25.656
1654.40,25.39
1654.60,25.412
1654.80,25.398
1655.00,25.378
1655.20,25.398
1655.40,25.472
1655.60,25.356
1655.80,25.432
1656.00,25.346
1656.20,25.42
1656.40,25.346
1656.60,25.362
1656.80,25.506
1657.00,25.378
1657.20,25.434
1657.40,25.362
1657.60,25.37
1657.80,25.388
1658.00,25.392
1658.20,25.436
1658.40,25.384
1658.60,25.382
1658.80,25.41
1659.00,25.348
1659.20,25.382
1659.40,25.338
1659.60,25.536
1659.80,25.352
1660.00,25.374
1660.20,25.432
1660.40,25.384
1660.60,25.436
1660.80,25.338
1661.00,25.5
1661.20,25.326
1661.40,25.428
1661.60,25.39
1661.80,25.384
1662.00,25.444
1662.20,25.34
1662.40,25.404
1662.60,25.426
1662.80,25.41
1663.00,25.414
1663.20,25.722
1663.40,24.992
1663.60,25.764
1663.80,25.28
1664.00,25.34
1664.20,25.444
1664.40,25.366
1664.60,25.39
1664.80,25.376
1665.00,25.522
1665.20,25.356
1665.40,25.432
1665.60,25.304
1665.80,25.464
1666.00,25.368
1666.20,25.406
1666.40,25.456
1666.60,25.392
1666.80,25.348
1667.00,25.436
1667.20,25.396
1667.40,25.412
1667.60,25.4
1667.80,25.51
1668.00,25.374
1668.20,25.426
1668.40,25.33
1668.60,25.41
1668.80,25.382
1669.00,25.392
1669.20,25.532
1669.40,25.396
1669.60,25.382
1669.80,25.404
1670.00,25.382
1670.20,25.378
1670.40,25.418
1670.60,25.41
1670.80,25.406
1671.00,25.378
1671.20,25.39
1671.40,25.396
1671.60,25.392
1671.80,25.444
1672.00,25.382
1672.20,25.422
1672.40,25.356
1672.60,25.422
1672.80,25.392
1673.00,25.388
1673.20,25.734
1673.40,25.404
1673.60,25.378
1673.80,25.368
1674.00,25.414
1674.20,25.374
1674.40,25.334
1674.60,25.514
1674.80,25.396
1675.00,25.398
1675.20,25.376
1675.40,25.36
1675.60,25.39
1675.80,25.376
1676.00,25.478
1676.20,25.366
1676.40,25.326
1676.60,25.476
1676.80,25.33
1677.00,25.366
1677.20,25.37
1677.40,25.464
1677.60,25.37
1677.80,25.432
1678.00,25.396
1678.20,25.384
1678.40,25.384
1678.60,25.412
1678.80,25.414
1679.00,25.442
1679.20,25.42
1679.40,25.356
1679.60,25.388
1679.80,25.436
1680.00,25.478
1680.20,25.382
1680.40,25.352
1680.60,25.396
1680.80,25.344
1681.00,25.456
1681.20,25.78
1681.40,25.046
1681.60,25.434
1681.80,25.388
1682.00,25.374
1682.20,25.404
1682.40,25.422
1682.60,25.356
1682.80,25.616
1683.00,25.45
1683.20,25.392
1683.40,25.368
1683.60,25.432
1683.80,25.398
1684.00,25.368
1684.20,25.532
1684.40,25.352
1684.60,25.354
1684.80,25.448
1685.00,25.404
1685.20,25.42
1685.40,25.392
1685.60,25.398
1685.80,25.44
1686.00,25.414
1686.20,25.388
1686.40,25.382
1686.60,25.406
1686.80,25.388
1687.00,25.4
1687.20,25.422
1687.40,25.376
1687.60,25.454
1687.80,25.376
1688.00,25.41
1688.20,25.462
1688.40,25.36
1688.60,25.444
1688.80,25.356
1689.00,25.382
1689.20,25.376
1689.40,25.426
1689.60,25.478
1689.80,25.432
1690.00,25.418
1690.20,25.36
1690.40,25.378
1690.60,25.41
1690.80,25.398
1691.00,25.45
1691.20,25.4
1691.40,25.4
1691.60,25.444
1691.80,25.354
1692.00,25.462
1692.20,25.41
1692.40,25.684
1692.60,25.39
1692.80,25.396
1693.00,25.366
1693.20,25.428
1693.40,25.368
1693.60,25.422
1693.80,25.422
1694.00,25.486
1694.20,25.378
1694.40,25.392
1694.60,25.404
1694.80,25.4
1695.00,25.368
1695.20,25.492
1695.40,25.346
1695.60,25.42
1695.80,25.426
1696.00,25.316
1696.20,25.37
1696.40,25.55
1696.60,25.368
1696.80,25.426
1697.00,25.376
1697.20,25.434
1697.40,25.354
1697.60,25.384
1697.80,25.448
1698.00,25.41
1698.20,25.444
1698.40,25.4
1698.60,25.398
1698.80,25.39
1699.00,25.346
1699.20,25.888
1699.40,25.016
1699.60,25.39
1699.80,25.39
1700.00,25.352
1700.20,25.412
1700.40,25.36
1700.60,25.514
1700.80,25.382
1701.00,25.392
1701.20,25.428
1701.40,25.406
1701.60,25.356
1701.80,25.398
1702.00,25.654
1702.20,25.354
1702.40,25.426
1702.60,25.392
1702.80,25.398
1703.00,25.414
1703.20,25.4
1703.40,25.41
1703.60,25.334
1703.80,25.354
1704.00,25.456
1704.20,25.376
1704.40,25.396
1704.60,25.532
1704.80,25.348
1705.00,25.418
1705.20,25.352
1705.40,25.398
1705.60,25.378
1705.80,25.432
1706.00,25.432
1706.20,25.444
1706.40,25.41
1706.60,25.368
1706.80,25.378
1707.00,25.39
1707.20,25.366
1707.40,25.444
1707.60,25.392
1707.80,25.41
1708.00,25.422
1708.20,25.368
1708.40,25.428
1708.60,25.362
1708.80,25.5
1709.00,25.398
1709.20,25.382
1709.40,25.434
1709.60,25.434
1709.80,25.378
1710.00,25.39
1710.20,25.51
1710.40,25.34
1710.60,25.384
1710.80,25.45
1711.00,25.33
1711.20,25.398
1711.40,25.412
1711.60,25.572
1711.80,25.422
1712.00,25.366
1712.20,25.406
1712.40,25.454
1712.60,25.282
1712.80,25.498
1713.00,25.334
1713.20,25.476
1713.40,25.378
1713.60,25.398
1713.80,25.376
1714.00,25.41
1714.20,25.462
1714.40,25.39
1714.60,25.448
1714.80,25.34
1715.00,25.4
1715.20,25.422
1715.40,25.384
1715.60,25.456
1715.80,25.382
1716.00,25.422
1716.20,25.406
1716.40,25.33
1716.60,25.412
1716.80,25.436
1717.00,25.442
1717.20,25.888
1717.40,24.886
1717.60,25.426
1717.80,25.418
1718.00,25.332
1718.20,25.47
1718.40,25.434
1718.60,25.426
1718.80,25.346
1719.00,25.352
1719.20,25.382
1719.40,25.48
1719.60,25.462
1719.80,25.338
1720.00,25.396
1720.20,25.44
1720.40,25.378
1720.60,25.39
1720.80,25.374
1721.00,25.876
1721.20,25.258
1721.40,25.4
1721.60,25.368
1721.80,25.348
1722.00,25.422
1722.20,25.436
1722.40,25.418
1722.60,25.434
1722.80,25.382
1723.00,25.418
1723.20,25.422
1723.40,25.378
1723.60,25.34
1723.80,25.522
1724.00,25.384
1724.20,25.356
1724.40,25.41
1724.60,25.384
1724.80,25.432
1725.00,25.376
1725.20,25.488
1725.40,25.464
1725.60,25.334
1725.80,25.41
1726.00,25.39
1726.20,25.392
1726.40,25.396
1726.60,25.388
1726.80,25.506
1727.00,25.37
1727.20,25.388
1727.40,25.368
1727.60,25.366
1727.80,25.436
1728.00,25.45
1728.20,25.376
1728.40,25.4
1728.60,25.406
1728.80,25.398
1729.00,25.374
1729.20,25.456
1729.40,25.428
1729.60,25.374
1729.80,25.434
1730.00,25.404
1730.20,25.354
1730.40,25.41
1730.60,25.664
1730.80,25.458
1731.00,25.464
1731.20,25.346
1731.40,25.426
1731.60,25.4
1731.80,25.326
1732.00,25.532
1732.20,25.412
1732.40,25.398
1732.60,25.434
1732.80,25.374
1733.00,25.368
1733.20,25.45
1733.40,25.414
1733.60,25.464
1733.80,25.418
1734.00,25.382
1734.20,25.404
1734.40,25.398
1734.60,25.382
1734.80,25.51
1735.00,25.392
1735.20,25.84
1735.40,24.936
1735.60,25.378
1735.80,25.4
1736.00,25.484
1736.20,25.368
1736.40,25.406
1736.60,25.4
1736.80,25.378
1737.00,25.406
1737.20,25.366
1737.40,25.52
1737.60,25.356
1737.80,25.398
1738.00,25.356
1738.20,25.432
1738.40,25.352
1738.60,25.444
1738.80,25.392
1739.00,25.444
1739.20,25.396
1739.40,25.4
1739.60,25.354
1739.80,25.376
1740.00,25.44
1740.20,25.686
1740.40,25.39
1740.60,25.4
1740.80,25.4
1741.00,25.418
1741.20,25.414
1741.40,25.334
1741.60,25.498
1741.80,25.388
1742.00,25.398
1742.20,25.44
1742.40,25.382
1742.60,25.396
1742.80,25.39
1743.00,25.476
1743.20,25.41
1743.40,25.33
1743.60,25.382
1743.80,25.414
1744.00,25.398
1744.20,25.506
1744.40,25.312
1744.60,25.484
1744.80,25.41
1745.00,25.33
1745.20,25.428
1745.40,25.388
1745.60,25.558
1745.80,25.382
1746.00,25.382
1746.20,25.362
1746.40,25.454
1746.60,25.346
1746.80,25.434
1747.00,25.422
1747.20,25.414
1747.40,25.418
1747.60,25.354
1747.80,25.428
1748.00,25.374
1748.20,25.352
1748.40,25.532
1748.60,25.362
1748.80,25.376
1749.00,25.398
1749.20,25.378
1749.40,25.384
1749.60,25.4
1749.80,25.742
1750.00,25.368
1750.20,25.388
1750.40,25.412
1750.60,25.368
1750.80,25.392
1751.00,25.334
1751.20,25.542
1751.40,25.344
1751.60,25.406
1751.80,25.42
1752.00,25.426
1752.20,25.33
1752.40,25.464
1752.60,25.39
1752.80,25.42
1753.00,25.382
1753.20,25.786
1753.40,25.01
1753.60,25.368
1753.80,25.56
1754.00,25.388
1754.20,25.412
1754.40,25.354
1754.60,25.418
1754.80,25.464
1755.00,25.356
1755.20,25.47
1755.40,25.39
1755.60,25.41
1755.80,25.418
1756.00,25.382
1756.20,25.354
1756.40,25.422
1756.60,25.476
1756.80,25.39
1757.00,25.412
1757.20,25.356
1757.40,25.442
1757.60,25.362
1757.80,25.404
1758.00,25.488
1758.20,25.344
1758.40,25.434
1758.60,25.404
1758.80,25.462
1759.00,25.376
1759.20,25.374
1759.40,25.75
1759.60,25.344
1759.80,25.396
1760.00,25.404
1760.20,25.4
1760.40,25.448
1760.60,25.524
1760.80,25.376
1761.00,25.42
1761.20,25.396
1761.40,25.396
1761.60,25.422
1761.80,25.442
1762.00,25.502
1762.20,25.374
1762.40,25.456
1762.60,25.414
1762.80,25.404
1763.00,25.396
1763.20,25.382
1763.40,25.464
1763.60,25.368
1763.80,25.44
1764.00,25.412
1764.20,25.392
1764.40,25.344
1764.60,25.362
1764.80,25.492
1765.00,25.414
1765.20,25.384
1765.40,25.414
1765.60,25.382
1765.80,25.4
1766.00,25.432
1766.20,25.444
1766.40,25.418
1766.60,25.346
1766.80,25.398
1767.00,25.422
1767.20,25.422
1767.40,25.362
1767.60,25.506
1767.80,25.354
1768.00,25.472
1768.20,25.388
1768.40,25.366
1768.60,25.396
1768.80,25.73
1769.00,25.286
1769.20,25.368
1769.40,25.396
1769.60,25.398
1769.80,25.368
1770.00,25.398
1770.20,25.494
1770.40,25.354
1770.60,25.44
1770.80,25.392
1771.00,25.374
1771.20,25.794
1771.40,24.92
1771.60,25.484
1771.80,25.436
1772.00,25.392
1772.20,25.384
1772.40,25.422
1772.60,25.34
1772.80,25.434
1773.00,25.494
1773.20,25.346
1773.40,25.354
1773.60,25.422
1773.80,25.42
1774.00,25.398
1774.20,25.436
1774.40,25.456
1774.60,25.382
1774.80,25.356
1775.00,25.418
1775.20,25.412
1775.40,25.428
1775.60,25.434
1775.80,25.48
1776.00,25.404
1776.20,25.376
1776.40,25.384
1776.60,25.428
1776.80,25.396
1777.00,25.506
1777.20,25.436
1777.40,25.354
1777.60,25.332
1777.80,25.5
1778.00,25.37
1778.20,25.426
1778.40,25.802
1778.60,25.322
1778.80,25.378
1779.00,25.388
1779.20,25.418
1779.40,25.384
1779.60,25.428
1779.80,25.44
1780.00,25.396
1780.20,25.382
1780.40,25.422
1780.60,25.376
1780.80,25.4
1781.00,25.448
1781.20,25.422
1781.40,25.418
1781.60,25.392
1781.80,25.366
1782.00,25.414
1782.20,25.398
1782.40,25.45
1782.60,25.444
1782.80,25.422
1783.00,25.384
1783.20,25.398
1783.40,25.346
1783.60,25.37
1783.80,25.398
1784.00,25.462
1784.20,25.382
1784.40,25.338
1784.60,25.368
1784.80,25.486
1785.00,25.39
1785.20,25.538
1785.40,25.34
1785.60,25.434
1785.80,25.398
1786.00,25.388
1786.20,25.426
1786.40,25.36
1786.60,25.51
1786.80,25.398
1787.00,25.348
1787.20,25.464
1787.40,25.368
1787.60,25.356
1787.80,25.442
1788.00,25.58
1788.20,25.516
1788.40,25.348
1788.60,25.406
1788.80,25.45
1789.00,25.382
1789.20,25.88
1789.40,25.076
1789.60,25.33
1789.80,25.444
1790.00,25.388
1790.20,25.41
1790.40,25.41
1790.60,25.384
1790.80,25.436
1791.00,25.458
1791.20,25.36
1791.40,25.39
1791.60,25.346
1791.80,25.47
1792.20,25.564
1792.40,25.41
1792.60,25.458
1792.80,25.354
1793.00,25.36
1793.20,25.536
1793.40,25.382
1793.60,25.374
1793.80,25.428
1794.00,25.406
1794.20,25.392
1794.40,25.448
1794.60,25.506
1794.80,25.36
1795.00,25.356
1795.20,25.4
1795.40,25.422
1795.60,25.392
1795.80,25.406
1796.00,25.48
1796.20,25.426
1796.40,25.33
1796.60,25.472
1796.80,25.404
1797.00,25.376
1797.20,25.422
1797.40,25.706
1797.60,25.414
1797.80,25.34
1798.00,25.434
1798.20,25.362
1798.40,25.492
1798.60,25.308
1798.80,25.5
1799.00,25.4
1799.20,25.388
1799.40,25.414
1799.60,25.368
1799.80,25.388
1800.00,25.422
1800.20,25.5
1800.40,25.404
1800.60,25.39
1800.80,25.432
1801.00,25.41
1801.20,25.428
1801.40,25.44
1801.60,25.362
1801.80,25.414
1802.00,25.44
1802.20,25.39
1802.40,25.378
1802.60,25.418
1802.80,25.476
1803.00,25.374
1803.20,25.456
1803.40,25.332
1803.60,25.356
1803.80,25.492
1804.00,25.422
1804.20,25.442
1804.40,25.868
1804.60,24.97
1804.80,25.36
1805.00,25.418
1805.20,25.338
1805.40,25.44
1805.60,25.456
1805.80,25.4
1806.00,25.404
1806.20,25.346
1806.40,25.406
1806.60,25.41
1806.80,25.4
1807.00,25.728
1807.20,25.374
1807.40,25.388
1807.60,25.392
1807.80,25.428
1808.00,25.422
1808.20,25.406
1808.40,25.466
1808.60,25.41
1808.80,25.384
1809.00,25.404
1809.20,25.4
1809.40,25.422
1809.60,25.574
1809.80,25.366
1810.00,25.37
1810.20,25.334
1810.40,25.42
1810.60,25.406
1810.80,25.442
1811.00,25.442
1811.20,25.418
1811.40,25.404
1811.60,25.406
1811.80,25.39
1812.00,25.374
1812.20,25.422
1812.40,25.418
1812.60,25.414
1812.80,25.334
1813.00,25.352
1813.20,25.44
1813.40,25.4
1813.60,25.454
1813.80,25.432
1814.00,25.422
1814.20,25.4
1814.40,25.412
1814.60,25.428
1814.80,25.356
1815.00,25.4
1815.20,25.5
1815.40,25.388
1815.60,25.414
1815.80,25.392
1816.00,25.436
1816.20,25.376
1816.40,25.432
1816.60,25.582
1816.80,25.4
1817.00,25.4
1817.20,25.396
1817.40,25.422
1817.60,25.374
1817.80,25.532
1818.00,25.37
1818.20,25.374
1818.40,25.454
1818.60,25.362
1818.80,25.398
1819.00,25.374
1819.20,25.464
1819.40,25.454
1819.60,25.376
1819.80,25.456
1820.00,25.382
1820.20,25.308
1820.40,25.462
1820.60,25.488
1820.80,25.462
1821.00,25.288
1821.20,25.41
1821.40,25.418
1821.60,25.392
1821.80,25.42
1822.00,25.484
1822.20,25.378
1822.40,25.846
1822.60,24.95
1822.80,25.414
1823.00,25.432
1823.20,25.37
1823.40,25.51
1823.60,25.406
1823.80,25.374
1824.00,25.44
1824.20,25.36
1824.40,25.414
1824.60,25.378
1824.80,25.462
1825.00,25.376
1825.20,25.37
1825.40,25.44
1825.60,25.428
1825.80,25.368
1826.00,25.89
1826.20,25.162
1826.40,25.42
1826.60,25.41
1826.80,25.376
1827.00,25.404
1827.20,25.374
1827.40,25.494
1827.60,25.348
1827.80,25.418
1828.00,25.384
1828.20,25.412
1828.40,25.404
1828.60,25.368
1828.80,25.506
1829.00,25.354
1829.20,25.388
1829.40,25.434
1829.60,25.374
1829.80,25.428
1830.00,25.36
1830.20,25.53
1830.40,25.318
1830.60,25.428
1830.80,25.404
1831.00,25.448
1831.20,25.384
1831.40,25.346
1831.60,25.524
1831.80,25.388
1832.00,25.418
1832.20,25.472
1832.40,25.36
1832.60,25.392
1832.80,25.404
1833.00,25.398
1833.20,25.406
1833.40,25.362
1833.60,25.486
1833.80,25.4
1834.00,25.39
1834.20,25.458
1834.40,25.346
1834.60,25.39
1834.80,25.464
1835.00,25.396
1835.20,25.388
1835.40,25.412
1835.60,25.66
1835.80,25.432
1836.00,25.418
1836.20,25.348
1836.40,25.39
1836.60,25.486
1836.80,25.41
1837.00,25.426
1837.20,25.434
1837.40,25.392
1837.60,25.368
1837.80,25.454
1838.00,25.378
1838.20,25.422
1838.40,25.45
1838.60,25.382
1838.80,25.396
1839.00,25.378
1839.20,25.374
1839.40,25.374
1839.60,25.39
1839.80,25.488
1840.00,25.442
1840.20,25.37
1840.40,25.802
1840.60,24.994
1840.80,25.36
1841.00,25.432
1841.20,25.398
1841.40,25.41
1841.60,25.44
1841.80,25.398
1842.00,25.374
1842.20,25.37
1842.40,25.532
1842.60,25.348
1842.80,25.476
1843.00,25.34
1843.20,25.376
1843.40,25.392
1843.60,25.396
1843.80,25.508
1844.00,25.422
1844.20,25.376
1844.40,25.44
1844.60,25.344
1844.80,25.428
1845.00,25.392
1845.20,25.668
1845.40,25.396
1845.60,25.414
1845.80,25.404
1846.00,25.404
1846.20,25.316
1846.40,25.434
1846.60,25.492
1846.80,25.39
1847.00,25.434
1847.20,25.346
1847.40,25.436
1847.60,25.376
1847.80,25.428
1848.00,25.454
1848.20,25.404
1848.40,25.41
1848.60,25.384
1848.80,25.362
1849.00,25.4
1849.20,25.442
1849.40,25.41
1849.60,25.39
1849.80,25.382
1850.00,25.444
1850.20,25.34
1850.40,25.422
1850.60,25.48
1850.80,25.448
1851.00,25.392
1851.20,25.368
1851.40,25.422
1851.60,25.432
1851.80,25.376
1852.00,25.464
1852.20,25.418
1852.40,25.374
1852.60,25.4
1852.80,25.42
1853.00,25.426
1853.20,25.436
1853.40,25.472
1853.60,25.37
1853.80,25.426
1854.00,25.404
1854.20,25.412
1854.40,25.378
1854.60,25.36
1854.80,25.714
1855.00,25.456
1855.20,25.41
1855.40,25.366
1855.60,25.448
1855.80,25.406
1856.00,25.374
1856.20,25.47
1856.40,25.388
1856.60,25.396
1856.80,25.44
1857.00,25.414
1857.20,25.354
1857.40,25.488
1857.60,25.384
1857.80,25.4
1858.00,25.396
1858.20,25.376
1858.40,25.86
1858.60,24.978
1858.80,25.514
1859.00,25.382
1859.20,25.444
1859.40,25.398
1859.60,25.384
1859.80,25.384
1860.00,25.418
1860.20,25.458
1860.40,25.366
1860.60,25.456
1860.80,25.344
1861.00,25.422
1861.20,25.412
1861.40,25.354
1861.60,25.508
1861.80,25.448
1862.00,25.378
1862.20,25.476
1862.40,25.378
1862.60,25.492
1862.80,25.39
1863.00,25.488
1863.20,25.422
1863.40,25.36
1863.60,25.492
1863.80,25.344
1864.00,25.442
1864.20,25.392
1864.40,25.646
1864.60,25.472
1864.80,25.352
1865.00,25.428
1865.20,25.4
1865.40,25.41
1865.60,25.538
1865.80,25.348
1866.00,25.356
1866.20,25.434
1866.40,25.356
1866.60,25.444
1866.80,25.404
1867.00,25.502
1867.20,25.39
1867.40,25.412
1867.60,25.39
1867.80,25.388
1868.00,25.45
1868.20,25.356
1868.40,25.506
1868.60,25.418
1868.80,25.422
1869.00,25.428
1869.20,25.374
1869.40,25.398
1869.60,25.37
1869.80,25.498
1870.00,25.36
1870.20,25.412
1870.40,25.418
1870.60,25.352
1870.80,25.434
1871.00,25.378
1871.20,25.442
1871.40,25.47
1871.60,25.4
1871.80,25.378
1872.00,25.378
1872.20,25.42
1872.40,25.392
1872.60,25.508
1872.80,25.384
1873.00,25.4
1873.20,25.37
1873.40,25.428
1873.60,25.426
1873.80,25.64
1874.00,25.354
1874.20,25.384
1874.40,25.404
1874.60,25.392
1874.80,25.41
1875.00,25.378
1875.20,25.546
1875.40,25.388
1875.60,25.348
1875.80,25.434
1876.00,25.384
1876.20,25.382
1876.40,25.882
1876.60,25.05
1876.80,25.406
1877.00,25.41
1877.20,25.404
1877.40,25.326
1877.60,25.42
1877.80,25.376
1878.00,25.506
1878.20,25.37
1878.40,25.378
1878.60,25.406
1878.80,25.378
1879.00,25.51
1879.20,25.412
1879.40,25.442
1879.60,25.398
1879.80,25.378
1880.00,25.414
1880.20,25.444
1880.40,25.348
1880.60,25.396
1880.80,25.484
1881.00,25.412
1881.20,25.376
1881.40,25.448
1881.60,25.36
1881.80,25.432
1882.00,25.51
1882.20,25.288
1882.40,25.4
1882.60,25.442
1882.80,25.39
1883.00,25.356
1883.20,25.45
1883.40,25.758
1883.60,25.322
1883.80,25.418
1884.00,25.36
1884.20,25.404
1884.40,25.426
1884.60,25.404
1884.80,25.44
1885.00,25.4
1885.20,25.39
1885.40,25.42
1885.60,25.428
1885.80,25.33
1886.00,25.462
1886.20,25.488
1886.40,25.4
1886.60,25.346
1886.80,25.412
1887.00,25.442
1887.20,25.36
1887.40,25.388
1887.60,25.528
1887.80,25.396
1888.00,25.404
1888.20,25.36
1888.40,25.42
1888.60,25.362
1888.80,25.384
1889.00,25.466
1889.20,25.414
1889.40,25.39
1889.60,25.44
1889.80,25.384
1890.00,25.37
1890.20,25.508
1890.40,25.37
1890.60,25.436
1890.80,25.348
1891.00,25.404
1891.20,25.454
1891.40,25.412
1891.60,25.478
1891.80,25.432
1892.00,25.398
1892.20,25.404
1892.40,25.448
1892.60,25.412
1892.80,25.326
1893.00,25.634
1893.20,25.542
1893.40,25.396
1893.60,25.346
1893.80,25.4
1894.00,25.404
1894.20,25.382
1894.40,25.906
1894.60,24.95
1894.80,25.412
1895.00,25.41
1895.20,25.4
1895.40,25.312
1895.60,25.422
1895.80,25.538
1896.00,25.396
1896.20,25.392
1896.40,25.422
1896.60,25.404
1896.80,25.348
1897.00,25.456
1897.20,25.442
1897.40,25.432
1897.60,25.454
1897.80,25.348
1898.00,25.448
1898.20,25.374
1898.40,25.51
1898.60,25.382
1898.80,25.37
1899.00,25.404
1899.20,25.428
1899.40,25.392
1899.60,25.368
1899.80,25.528
1900.00,25.392
1900.20,25.436
1900.40,25.376
1900.60,25.376
1900.80,25.42
1901.00,25.39
1901.20,25.458
1901.40,25.41
1901.60,25.346
1901.80,25.456
1902.00,25.39
1902.20,25.396
1902.40,25.382
1902.60,25.762
1902.80,25.36
1903.00,25.366
1903.20,25.428
1903.40,25.378
1903.60,25.374
1903.80,25.398
1904.00,25.476
1904.20,25.428
1904.40,25.392
1904.60,25.334
1904.80,25.41
1905.00,25.396
1905.20,25.434
1905.40,25.44
1905.60,25.4
1905.80,25.412
1906.00,25.354
1906.20,25.428
1906.40,25.434
1906.60,25.494
1906.80,25.338
1907.00,25.45
1907.20,25.356
1907.40,25.414
1907.60,25.444
1907.80,25.392
1908.00,25.492
1908.20,25.454
1908.40,25.334
1908.60,25.42
1908.80,25.382
1909.00,25.422
1909.20,25.428
1909.40,25.384
1909.60,25.36
1909.80,25.45
1910.00,25.432
1910.20,25.384
1910.40,25.392
1910.60,25.52
1910.80,25.5
1911.00,25.278
1911.20,25.442
1911.40,25.376
1911.60,25.396
1911.80,25.44
1912.00,25.396
1912.20,25.752
1912.40,25.818
1912.60,24.952
1912.80,25.434
1913.00,25.39
1913.20,25.36
1913.40,25.4
1913.60,25.436
1913.80,25.42
1914.00,25.396
1914.20,25.436
1914.40,25.442
1914.60,25.352
1914.80,25.554
1915.00,25.326
1915.20,25.464
1915.40,25.39
1915.60,25.398
1915.80,25.41
1916.00,25.44
1916.20,25.454
1916.40,25.396
1916.60,25.458
1916.80,25.388
1917.00,25.448
1917.20,25.388
1917.40,25.352
1917.60,25.462
1917.80,25.426
1918.00,25.368
1918.20,25.428
1918.40,25.382
1918.60,25.432
1918.80,25.344
1919.00,25.472
1919.20,25.4
1919.40,25.374
1919.60,25.396
1919.80,25.384
1920.00,25.34
1920.20,25.436
1920.40,25.476
1920.60,25.41
1920.80,25.382
1921.00,25.472
1921.20,25.388
1921.40,25.432
1921.60,25.388
1921.80,25.656
1922.00,25.47
1922.20,25.352
1922.40,25.374
1922.60,25.412
1922.80,25.384
1923.00,25.576
1923.20,25.33
1923.40,25.404
1923.60,25.384
1923.80,25.39
1924.00,25.434
1924.20,25.376
1924.40,25.5
1924.60,25.338
1924.80,25.426
1925.00,25.376
1925.20,25.436
1925.40,25.412
1925.60,25.31
1925.80,25.5
1926.00,25.41
1926.20,25.412
1926.40,25.388
1926.60,25.384
1926.80,25.39
1927.00,25.444
1927.20,25.494
1927.40,25.42
1927.60,25.346
1927.80,25.412
1928.00,25.436
1928.20,25.4
1928.40,25.442
1928.60,25.396
1928.80,25.456
1929.00,25.368
1929.20,25.396
1929.40,25.382
1929.60,25.41
1929.80,25.428
1930.00,25.45
1930.20,25.374
1930.40,25.84
1930.60,24.964
1930.80,25.398
1931.00,25.352
1931.20,25.822
1931.40,25.3
1931.60,25.354
1931.80,25.36
1932.00,25.4
1932.20,25.456
1932.40,25.426
1932.60,25.412
1932.80,25.478
1933.00,25.388
1933.20,25.406
1933.40,25.442
1933.60,25.42
1933.80,25.4
1934.00,25.436
1934.20,25.392
1934.40,25.41
1934.60,25.374
1934.80,25.4
1935.00,25.426
1935.20,25.382
1935.40,25.448
1935.60,25.414
1935.80,25.37
1936.00,25.41
1936.20,25.41
1936.40,25.42
1936.60,25.414
1936.80,25.426
1937.00,25.442
1937.20,25.33
1937.40,25.44
1937.60,25.39
1937.80,25.4
1938.00,25.422
1938.20,25.454
1938.40,25.396
1938.60,25.388
1938.80,25.404
1939.00,25.414
1939.20,25.428
1939.40,25.464
1939.60,25.338
1939.80,25.418
1940.00,25.422
1940.20,25.37
1940.40,25.418
1940.60,25.378
1940.80,25.748
1941.00,25.44
1941.20,25.392
1941.40,25.45
1941.60,25.374
1941.80,25.432
1942.00,25.418
1942.20,25.466
1942.40,25.398
1942.60,25.398
1942.80,25.396
1943.00,25.392
1943.20,25.428
1943.40,25.374
1943.60,25.538
1943.80,25.398
1944.00,25.368
1944.20,25.4
1944.40,25.384
1944.60,25.368
1944.80,25.472
1945.00,25.442
1945.20,25.442
1945.40,25.414
1945.60,25.374
1945.80,25.41
1946.00,25.384
1946.20,25.494
1946.40,25.37
1946.60,25.4
1946.80,25.412
1947.00,25.39
1947.20,25.39
1947.40,25.398
1947.60,25.532
1947.80,25.308
1948.00,25.422
1948.20,25.488
1948.40,25.814
1948.60,24.984
1948.80,25.4
1949.00,25.456
1949.20,25.376
1949.40,25.47
1949.60,25.34
1949.80,25.4
1950.00,25.436
1950.20,25.346
1950.40,25.66
1950.60,25.464
1950.80,25.47
1951.00,25.376
1951.20,25.414
1951.40,25.378
1951.60,25.404
1951.80,25.434
1952.00,25.418
1952.20,25.376
1952.40,25.384
1952.60,25.414
1952.80,25.458
1953.00,25.396
1953.20,25.464
1953.40,25.376
1953.60,25.4
1953.80,25.454
1954.00,25.382
1954.20,25.44
1954.40,25.39
1954.60,25.442
1954.80,25.376
1955.00,25.36
1955.20,25.404
1955.40,25.382
1955.60,25.39
1955.80,25.552
1956.00,25.312
1956.20,25.44
1956.40,25.44
1956.60,25.354
1956.80,25.388
1957.00,25.388
1957.20,25.466
1957.40,25.436
1957.60,25.384
1957.80,25.466
1958.00,25.39
1958.20,25.366
1958.40,25.398
1958.60,25.464
1958.80,25.396
1959.00,25.384
1959.20,25.382
1959.40,25.42
1959.60,25.388
1959.80,25.354
1960.00,25.712
1960.20,25.422
1960.40,25.344
1960.60,25.434
1960.80,25.396
1961.00,25.412
1961.20,25.42
1961.40,25.388
1961.60,25.506
1961.80,25.354
1962.00,25.422
1962.20,25.388
1962.40,25.4
1962.60,25.48
1962.80,25.39
1963.00,25.388
1963.20,25.392
1963.40,25.392
1963.60,25.354
1963.80,25.426
1964.00,25.574
1964.20,25.374
1964.40,25.418
1964.60,25.334
1964.80,25.412
1965.00,25.486
1965.20,25.374
1965.40,25.524
1965.60,25.4
1965.80,25.4
1966.00,25.428
1966.20,25.444
1966.40,25.858
1966.60,24.958
1966.80,25.51
1967.00,25.368
1967.20,25.392
1967.40,25.368
1967.60,25.422
1967.80,25.382
1968.00,25.39
1968.20,25.516
1968.40,25.374
1968.60,25.404
1968.80,25.384
1969.00,25.4
1969.20,25.444
1969.40,25.368
1969.60,25.69
1969.80,25.388
1970.00,25.404
1970.20,25.388
1970.40,25.432
1970.60,25.406
1970.80,25.398
1971.00,25.428
1971.20,25.384
1971.40,25.396
1971.60,25.378
1971.80,25.454
1972.00,25.352
1972.20,25.51
1972.40,25.378
1972.60,25.406
1972.80,25.428
1973.00,25.392
1973.20,25.382
1973.40,25.378
1973.60,25.47
1973.80,25.404
1974.00,25.45
1974.20,25.398
1974.40,25.338
1974.60,25.428
1974.80,25.396
1975.00,25.524
1975.20,25.392
1975.40,25.432
1975.60,25.366
1975.80,25.428
1976.00,25.428
1976.20,25.396
1976.40,25.434
1976.60,25.428
1976.80,25.36
1977.00,25.444
1977.20,25.412
1977.40,25.37
1977.60,25.414
1977.80,25.436
1978.00,25.47
1978.20,25.432
1978.40,25.42
1978.60,25.388
1978.80,25.392
1979.00,25.554
1979.20,25.454
1979.40,25.37
1979.60,25.432
1979.80,25.33
1980.00,25.37
