Time (ms),Main Avg Current (mA)
0.00,5.782
0.20,5.832
0.40,5.83
0.60,5.846
0.80,5.826
1.00,5.876
1.20,5.802
1.40,5.838
1.60,5.81
1.80,5.826
2.00,5.852
2.20,5.86
2.40,5.818
2.60,5.848
2.80,5.846
3.00,5.848
3.20,5.898
3.40,5.692
3.60,5.852
3.80,5.802
4.00,5.854
4.20,5.856
4.40,5.82
4.60,5.848
4.80,5.766
5.00,5.852
5.20,5.846
5.40,5.852
5.60,5.856
5.80,5.808
6.00,5.83
6.20,5.848
6.40,5.816
6.60,5.812
6.80,5.856
7.00,5.786
7.20,5.848
7.40,5.816
7.60,5.826
7.80,5.848
8.00,5.842
8.20,5.812
8.40,5.86
8.60,5.782
8.80,5.868
9.00,5.84
9.20,5.816
9.40,5.874
9.60,5.81
9.80,5.832
10.00,5.856
10.20,5.87
10.40,5.812
10.60,5.856
10.80,5.838
11.00,5.812
11.20,5.796
11.40,5.846
11.60,5.818
11.80,5.874
12.00,5.846
12.20,5.796
12.40,5.848
12.60,5.87
12.80,5.84
13.00,5.796
13.20,5.812
13.40,5.826
13.60,5.86
13.80,5.824
14.00,5.84
14.20,5.812
14.40,5.856
14.60,5.868
14.80,5.81
15.00,5.852
15.20,5.878
15.40,5.83
15.60,5.796
15.80,5.82
16.00,5.882
16.20,5.832
16.40,5.842
16.60,5.84
16.80,5.82
17.00,5.826
17.20,5.852
17.40,5.86
17.60,5.82
17.80,5.794
18.00,5.812
18.20,5.852
18.40,5.832
18.60,5.832
18.80,5.84
19.00,5.834
19.20,5.826
19.40,5.812
19.60,5.832
19.80,5.862
20.00,5.818
20.20,5.842
20.40,5.852
20.60,5.816
20.80,5.832
21.00,5.832
21.20,5.942
21.40,5.738
21.60,5.874
21.80,5.848
22.00,5.818
22.20,5.832
22.40,5.852
22.60,5.808
22.80,5.87
23.00,5.82
23.20,5.834
23.40,5.824
23.60,5.84
23.80,5.838
24.00,5.83
24.20,5.824
24.40,5.794
24.60,5.852
24.80,5.842
25.00,5.816
25.20,5.864
25.40,5.772
25.60,5.864
25.80,5.838
26.00,5.826
26.20,5.854
26.40,5.824
26.60,5.79
26.80,5.848
27.00,5.804
27.20,5.864
27.40,5.826
27.60,5.874
27.80,5.842
28.00,5.812
28.20,5.826
28.40,5.816
28.60,5.884
28.80,5.838
29.00,5.856
29.20,5.804
29.40,5.826
29.60,5.826
29.80,5.878
30.00,5.818
30.20,5.856
30.40,5.816
30.60,5.826
30.80,5.852
31.00,5.84
31.20,5.846
31.40,5.842
31.60,5.852
31.80,5.812
32.00,5.834
32.20,5.818
32.40,5.852
32.60,5.868
32.80,5.846
33.00,5.804
33.20,5.874
33.40,5.84
33.60,5.776
33.80,5.846
34.00,5.838
34.20,5.832
34.40,5.834
34.60,5.82
34.80,5.848
35.00,5.854
35.20,5.86
35.40,5.846
35.60,5.816
35.80,5.832
36.00,5.81
36.20,5.816
36.40,5.882
36.60,5.82
36.80,5.826
37.00,5.82
37.20,5.82
37.40,5.826
37.60,5.826
37.80,5.834
38.00,5.846
38.20,5.832
38.40,5.838
38.60,5.838
38.80,5.832
39.00,5.818
39.20,5.926
39.40,5.744
39.60,5.798
39.80,5.84
40.00,5.89
40.20,5.796
40.40,5.838
40.60,5.852
40.80,5.848
41.00,5.83
41.20,5.79
41.40,5.834
41.60,5.818
41.80,5.834
42.00,5.862
42.20,5.842
42.40,5.86
42.60,5.794
42.80,5.834
43.00,5.818
43.20,5.84
43.40,5.826
43.60,5.826
43.80,5.842
44.00,5.854
44.20,5.798
44.40,5.794
44.60,5.846
44.80,5.862
45.00,5.818
45.20,5.848
45.40,5.84
45.60,5.848
45.80,5.816
46.00,5.808
46.20,5.848
46.40,5.818
46.60,5.854
46.80,5.826
47.00,5.878
47.20,5.81
47.40,5.832
47.60,5.804
47.80,5.86
48.00,5.832
48.20,5.86
48.40,5.826
48.60,5.878
48.80,5.83
49.00,5.82
49.20,5.84
49.40,5.808
49.60,5.834
49.80,5.826
50.00,5.842
50.20,5.826
50.40,5.812
50.60,5.82
50.80,5.886
51.00,5.82
51.20,5.824
51.40,5.834
51.60,5.842
51.80,5.86
52.00,5.812
52.20,5.856
52.40,5.798
52.60,5.812
52.80,5.826
53.00,5.852
53.20,5.832
53.40,5.848
53.60,5.816
53.80,5.884
54.00,5.848
54.20,5.864
54.40,5.838
54.60,5.802
54.80,5.826
55.00,5.774
55.20,5.818
55.40,5.87
55.60,5.832
55.80,5.818
56.00,5.83
56.20,5.882
56.40,5.83
56.60,5.782
56.80,5.862
57.00,5.838
57.20,5.944
57.40,5.738
57.60,5.842
57.80,5.812
58.00,5.852
58.20,5.83
58.40,5.848
58.60,5.826
58.80,5.818
59.00,5.848
59.20,5.832
59.40,5.804
59.60,5.864
59.80,5.83
60.00,5.864
60.20,5.818
60.40,5.81
60.60,5.868
60.80,5.816
61.00,5.856
61.20,5.838
61.40,5.764
61.60,5.854
61.80,5.81
62.00,5.856
62.20,5.826
62.40,5.868
62.60,5.826
62.80,5.83
63.00,5.84
63.20,5.848
63.40,5.856
63.60,5.846
63.80,5.846
64.00,5.79
64.20,5.838
64.40,5.848
64.60,5.846
64.80,5.818
65.00,5.818
65.20,5.862
65.40,5.86
65.60,5.826
65.80,5.846
66.00,5.84
66.20,5.798
66.40,5.874
66.60,5.83
66.80,5.808
67.00,5.834
67.20,5.782
67.40,5.874
67.60,5.878
67.80,5.832
68.00,5.842
68.20,5.838
68.40,5.818
68.60,5.86
68.80,5.796
69.00,5.832
69.20,5.856
69.40,5.798
69.60,5.842
69.80,5.782
70.00,5.848
70.20,5.87
70.40,5.81
70.60,5.842
70.80,5.864
71.00,5.794
71.20,5.848
71.40,5.832
71.60,5.84
71.80,5.816
72.00,5.838
72.20,5.832
72.40,5.832
72.60,5.86
72.80,5.818
73.00,5.834
73.20,5.812
73.40,5.838
73.60,5.838
73.80,5.788
74.00,5.824
74.20,5.884
74.40,5.816
74.60,5.838
74.80,5.818
75.00,5.846
75.20,5.942
75.40,5.76
75.60,5.832
75.80,5.816
76.00,5.788
76.20,5.876
76.40,5.832
76.60,5.794
76.80,5.826
77.00,5.832
77.20,5.842
77.40,5.824
77.60,5.892
77.80,5.804
78.00,5.826
78.20,5.864
78.40,5.838
78.60,5.842
78.80,5.818
79.00,5.842
79.20,5.848
79.40,5.846
79.60,5.826
79.80,5.81
80.00,5.854
80.20,5.812
80.40,5.848
80.60,5.846
80.80,5.81
81.00,5.842
81.20,5.874
81.40,5.854
81.60,5.81
81.80,5.832
82.00,5.864
82.20,5.852
82.40,5.826
82.60,5.874
82.80,5.842
83.00,5.824
83.20,5.846
83.40,5.84
83.60,5.838
83.80,5.838
84.00,5.868
84.20,5.804
84.40,5.84
84.60,5.838
84.80,5.838
85.00,5.82
85.20,5.834
85.40,5.794
85.60,5.826
85.80,5.818
86.00,5.82
86.20,5.878
86.40,5.884
86.60,5.808
86.80,5.856
87.00,5.81
87.20,5.852
87.40,5.786
87.60,5.824
87.80,5.852
88.00,5.84
88.20,5.81
88.40,5.868
88.60,5.824
88.80,5.86
89.00,5.826
89.20,5.868
89.40,5.79
89.60,5.856
89.80,5.83
90.00,5.86
90.20,5.758
90.40,5.856
90.60,5.832
90.80,5.848
91.00,5.826
91.20,5.83
91.40,5.854
91.60,5.804
91.80,5.82
92.00,5.842
92.20,5.854
92.40,5.81
92.60,5.838
92.80,5.84
93.00,5.824
93.20,5.906
93.40,5.764
93.60,5.848
93.80,5.826
94.00,5.848
94.20,5.842
94.40,5.794
94.60,5.842
94.80,5.834
95.00,5.838
95.20,5.86
95.40,5.842
95.60,5.838
95.80,5.848
96.00,5.82
96.20,5.84
96.40,5.834
96.60,5.82
96.80,5.84
97.00,5.808
97.20,5.892
97.40,5.812
97.60,5.846
97.80,5.856
98.00,5.848
98.20,5.854
98.40,5.838
98.60,5.798
98.80,5.868
99.00,5.856
99.20,5.816
99.40,5.854
99.60,5.838
99.80,5.854
100.00,5.798
100.20,5.848
100.40,5.82
100.60,5.81
100.80,5.842
101.00,5.852
101.20,5.832
101.40,5.878
101.60,5.846
101.80,5.82
102.00,5.816
102.20,5.842
102.40,5.81
102.60,5.846
102.80,5.824
103.00,5.832
103.20,5.852
103.40,5.812
103.60,5.84
103.80,5.816
104.00,5.856
104.20,5.824
104.40,5.826
104.60,5.878
104.80,5.842
105.00,5.846
105.20,5.804
105.40,5.856
105.60,5.812
105.80,5.852
106.00,5.81
106.20,5.808
106.40,5.86
106.60,5.816
106.80,5.862
107.00,5.826
107.20,5.83
107.40,5.816
107.60,5.86
107.80,5.816
108.00,5.826
108.20,5.84
108.40,5.782
108.60,5.848
108.80,5.842
109.00,5.83
109.20,5.842
109.40,5.854
109.60,5.812
109.80,5.782
110.00,5.884
110.20,5.824
110.40,5.848
110.60,5.848
110.80,5.81
111.00,5.83
111.20,5.912
111.40,5.738
111.60,5.834
111.80,5.848
112.00,5.826
112.20,5.846
112.40,5.816
112.60,5.812
112.80,5.848
113.00,5.832
113.20,5.86
113.40,5.842
113.60,5.81
113.80,5.842
114.00,5.812
114.20,5.852
114.40,5.83
114.60,5.84
114.80,5.852
115.00,5.842
115.20,5.834
115.40,5.818
115.60,5.848
115.80,5.854
116.00,5.816
116.20,5.842
116.40,5.868
116.60,5.816
116.80,5.82
117.00,5.834
117.20,5.848
117.40,5.864
117.60,5.79
117.80,5.87
118.00,5.82
118.20,5.862
118.40,5.826
118.60,5.848
118.80,5.856
119.00,5.848
119.20,5.796
119.40,5.798
119.60,5.852
119.80,5.808
120.00,5.864
120.20,5.794
120.40,5.824
120.60,5.818
120.80,5.824
121.00,5.862
121.20,5.812
121.40,5.876
121.60,5.86
121.80,5.818
122.00,5.838
122.20,5.852
122.40,5.794
122.60,5.848
122.80,5.834
123.00,5.83
123.20,5.84
123.40,5.798
123.60,5.838
123.80,5.808
124.00,5.826
124.20,5.87
124.40,5.84
124.60,5.812
124.80,5.824
125.00,5.808
125.20,5.868
125.40,5.82
125.60,5.81
125.80,5.852
126.00,5.832
126.20,5.794
126.40,5.876
126.60,5.856
126.80,5.83
127.00,5.832
127.20,5.83
127.40,5.816
127.60,5.82
127.80,5.892
128.00,5.824
128.20,5.834
128.40,5.86
128.60,5.794
128.80,5.834
129.00,5.846
129.20,5.994
129.40,5.698
129.60,5.802
129.80,5.86
130.00,5.87
130.20,5.818
130.40,5.82
130.60,5.812
130.80,5.852
131.00,5.804
131.20,5.818
131.40,5.874
131.60,5.856
131.80,5.818
132.00,5.812
132.20,5.818
132.40,5.856
132.60,5.842
132.80,5.842
133.00,5.83
133.20,5.838
133.40,5.874
133.60,5.84
133.80,5.774
134.00,5.816
134.20,5.848
134.40,5.84
134.60,5.82
134.80,5.868
135.00,5.842
135.20,5.824
135.40,5.826
135.60,5.812
135.80,5.868
136.00,5.84
136.20,5.794
136.40,5.848
136.60,5.84
136.80,5.848
137.00,5.832
137.20,5.824
137.40,5.854
137.60,5.766
137.80,5.862
138.00,5.856
138.20,5.826
138.40,5.846
138.60,5.86
138.80,5.804
139.00,5.79
139.20,5.864
139.40,5.834
139.60,5.874
139.80,5.824
140.00,5.848
140.20,5.812
140.40,5.776
140.60,5.864
140.80,5.826
141.00,5.854
141.20,5.826
141.40,5.802
141.60,5.84
141.80,5.834
142.00,5.84
142.20,5.826
142.40,5.812
142.60,5.79
142.80,5.834
143.00,5.846
143.20,5.862
143.40,5.826
143.60,5.87
143.80,5.816
144.00,5.838
144.20,5.832
144.40,5.83
144.60,5.832
144.80,5.804
145.00,5.834
145.20,5.82
145.40,5.874
145.60,5.848
145.80,5.84
146.00,5.824
146.20,5.842
146.40,5.832
146.60,5.87
146.80,5.79
147.00,5.89
147.20,5.89
147.40,5.71
147.60,5.834
147.80,5.816
148.00,5.826
148.20,5.906
148.40,5.812
148.60,5.838
148.80,5.82
149.00,5.826
149.20,5.842
149.40,5.864
149.60,5.86
149.80,5.794
150.00,5.87
150.20,5.804
150.40,5.83
150.60,5.804
150.80,5.81
151.00,5.846
151.20,5.842
151.40,5.876
151.60,5.824
151.80,5.818
152.00,5.824
152.20,5.852
152.40,5.862
152.60,5.832
152.80,5.86
153.00,5.802
153.20,5.86
153.40,5.81
153.60,5.864
153.80,5.812
154.00,5.87
154.20,5.816
154.40,5.794
154.60,5.846
154.80,5.83
155.00,5.842
155.20,5.826
155.40,5.83
155.60,5.796
155.80,5.846
156.00,5.876
156.20,5.832
156.40,5.826
156.60,5.818
156.80,5.796
157.00,5.87
157.20,5.81
157.40,5.832
157.60,5.856
157.80,5.824
158.00,5.868
158.20,5.846
158.40,5.798
158.60,5.812
158.80,5.83
159.00,5.856
159.20,5.838
159.40,5.816
159.60,5.842
159.80,5.852
160.00,5.856
160.20,5.818
160.40,5.83
160.60,5.816
160.80,5.832
161.00,5.842
161.20,5.848
161.40,5.826
161.60,5.81
161.80,5.842
162.00,5.816
162.20,5.79
162.40,5.852
162.60,5.832
162.80,5.852
163.00,5.832
163.20,5.874
163.40,5.834
163.60,5.79
163.80,5.816
164.00,5.876
164.20,5.838
164.40,5.826
164.60,5.816
164.80,5.86
165.00,5.842
165.20,5.898
165.40,5.758
165.60,5.782
165.80,5.816
166.00,5.818
166.20,5.83
166.40,5.856
166.60,5.842
166.80,5.882
167.00,5.862
167.20,5.834
167.40,5.818
167.60,5.842
167.80,5.824
168.00,5.846
168.20,5.818
168.40,5.842
168.60,5.84
168.80,5.846
169.00,5.846
169.20,5.81
169.40,5.842
169.60,5.824
169.80,5.852
170.00,5.816
170.20,5.84
170.40,5.862
170.60,5.838
170.80,5.864
171.00,5.82
171.20,5.832
171.40,5.804
171.60,5.834
171.80,5.886
172.00,5.82
172.20,5.782
172.40,5.834
172.60,5.804
172.80,5.846
173.00,5.862
173.20,5.794
173.40,5.848
173.60,5.874
173.80,5.852
174.00,5.79
174.20,5.826
174.40,5.842
174.60,5.848
174.80,5.832
175.00,5.804
175.20,5.86
175.40,5.854
175.60,5.874
175.80,5.804
176.00,5.818
176.20,5.81
176.40,5.862
176.60,5.878
176.80,5.81
177.00,5.87
177.20,5.816
177.40,5.816
177.60,5.834
177.80,5.754
178.00,5.862
178.20,5.856
178.40,5.832
178.60,5.798
178.80,5.856
179.00,5.842
179.20,5.81
179.40,5.846
179.60,5.826
179.80,5.846
180.00,5.848
180.20,5.802
180.40,5.856
180.60,5.816
180.80,5.846
181.00,5.878
181.20,5.812
181.40,5.826
181.60,5.842
181.80,5.868
182.00,5.842
182.20,5.832
182.40,5.804
182.60,5.84
182.80,5.864
183.00,5.826
183.20,5.912
183.40,5.736
183.60,5.842
183.80,5.804
184.00,5.856
184.20,5.842
184.40,5.834
184.60,5.824
184.80,5.83
185.00,5.834
185.20,5.83
185.40,5.826
185.60,5.86
185.80,5.842
186.00,5.788
186.20,5.852
186.40,5.842
186.60,5.818
186.80,5.862
187.00,5.794
187.20,5.848
187.40,5.838
187.60,5.796
187.80,5.848
188.00,5.84
188.20,5.818
188.40,5.83
188.60,5.812
188.80,5.856
189.00,5.838
189.20,5.824
189.40,5.838
189.60,5.818
189.80,5.826
190.00,5.846
190.20,5.794
190.40,5.812
190.60,5.852
190.80,5.804
191.00,5.832
191.20,5.862
191.40,5.804
191.60,5.86
191.80,5.804
192.00,5.832
192.20,5.868
192.40,5.87
192.60,5.79
192.80,5.842
193.00,5.868
193.20,5.788
193.40,5.824
193.60,5.856
193.80,5.864
194.00,5.84
194.20,5.864
194.40,5.816
194.60,5.78
194.80,5.838
195.00,5.83
195.20,5.856
195.40,5.846
195.60,5.846
195.80,5.816
196.00,5.848
196.20,5.81
196.40,5.862
196.60,5.82
196.80,5.87
197.00,5.818
197.20,5.818
197.40,5.84
197.60,5.864
197.80,5.824
198.00,5.82
198.20,5.82
198.40,5.816
198.60,5.84
198.80,5.838
199.00,5.83
199.20,5.864
199.40,5.826
199.60,5.83
199.80,5.826
200.00,5.852
200.20,5.838
200.40,5.846
200.60,5.788
200.80,5.834
201.00,5.846
201.20,5.908
201.40,5.782
201.60,5.818
201.80,5.826
202.00,5.846
202.20,5.798
202.40,5.882
202.60,5.842
202.80,5.84
203.00,5.832
203.20,5.82
203.40,5.798
203.60,5.86
203.80,5.878
204.00,5.802
204.20,5.84
204.40,5.838
204.60,5.818
204.80,5.846
205.00,5.846
205.20,5.826
205.40,5.862
205.60,5.832
205.80,5.826
206.00,5.82
206.20,5.82
206.40,5.808
206.60,5.856
206.80,5.876
207.00,5.838
207.20,5.84
207.40,5.874
207.60,5.81
207.80,5.826
208.00,5.82
208.20,5.794
208.40,5.878
208.60,5.794
208.80,5.86
209.00,5.812
209.20,5.83
209.40,5.818
209.60,5.838
209.80,5.882
210.00,5.838
210.20,5.848
210.40,5.868
210.60,5.852
210.80,5.864
211.00,5.79
211.20,5.882
211.40,5.798
211.60,5.874
211.80,5.816
212.00,5.83
212.20,5.856
212.40,5.86
212.60,5.842
212.80,5.838
213.00,5.81
213.20,5.804
213.40,5.824
213.60,5.868
213.80,5.864
214.00,5.818
214.20,5.82
214.40,5.9
214.60,5.84
214.80,5.83
215.00,5.82
215.20,5.82
215.40,5.84
215.60,5.854
215.80,5.906
216.00,5.808
216.20,5.838
216.40,5.798
216.60,5.86
216.80,5.848
217.00,5.838
217.20,5.832
217.40,5.832
217.60,5.832
217.80,5.83
218.00,5.84
218.20,5.876
218.40,5.78
218.60,5.848
218.80,5.83
219.00,5.794
219.20,5.928
219.40,5.744
219.60,5.774
219.80,5.864
220.00,5.9
220.20,5.824
220.40,5.864
220.60,5.826
220.80,5.826
221.00,5.82
221.20,5.834
221.40,5.804
221.60,5.854
221.80,5.794
222.00,5.892
222.20,5.84
222.40,5.804
222.60,5.856
222.80,5.846
223.00,5.87
223.20,5.83
223.40,5.808
223.60,5.804
223.80,5.83
224.00,5.794
224.20,5.84
224.40,5.824
224.60,5.82
224.80,5.852
225.00,5.864
225.20,5.864
225.40,5.84
225.60,5.812
225.80,5.826
226.00,5.84
226.20,5.818
226.40,5.82
226.60,5.812
226.80,5.854
227.00,5.826
227.20,5.86
227.40,5.856
227.60,5.856
227.80,5.834
228.00,5.848
228.20,5.818
228.40,5.82
228.60,5.83
228.80,5.804
229.00,5.848
229.20,5.812
229.40,5.868
229.60,5.834
229.80,5.84
230.00,5.826
230.20,5.842
230.40,5.788
230.60,5.786
230.80,5.922
231.00,5.798
231.20,5.82
231.40,5.816
231.60,5.884
231.80,5.812
232.00,5.816
232.20,5.868
232.40,5.834
232.60,5.798
232.80,5.834
233.00,5.848
233.20,5.812
233.40,5.838
233.60,5.848
233.80,5.878
234.00,5.87
234.20,5.786
234.40,5.782
234.60,5.856
234.80,5.912
235.00,5.808
235.20,5.794
235.40,5.842
235.60,5.856
235.80,5.794
236.00,5.824
236.20,5.86
236.40,5.838
236.60,5.856
236.80,5.82
237.00,5.826
237.20,5.94
237.40,5.732
237.60,5.864
237.80,5.824
238.00,5.808
238.20,5.826
238.40,5.848
238.60,5.826
238.80,5.818
239.00,5.81
239.20,5.86
239.40,5.808
239.60,5.826
239.80,5.81
240.00,5.83
240.20,5.824
240.40,5.832
240.60,5.854
240.80,5.842
241.00,5.87
241.20,5.782
241.40,5.846
241.60,5.794
241.80,5.846
242.00,5.824
242.20,5.854
242.40,5.834
242.60,5.82
242.80,5.826
243.00,5.846
243.20,5.804
243.40,5.832
243.60,5.816
243.80,5.796
244.00,5.892
244.20,5.808
244.40,5.846
244.60,5.83
244.80,5.912
245.00,5.818
245.20,5.816
245.40,5.86
245.60,5.818
245.80,5.81
246.00,5.886
246.20,5.794
246.40,5.812
246.60,5.84
246.80,5.856
247.00,5.834
247.20,5.83
247.40,5.84
247.60,5.848
247.80,5.856
248.00,5.854
248.20,5.852
248.40,5.842
248.60,5.782
248.80,5.856
249.00,5.854
249.20,5.808
249.40,5.786
249.60,5.868
249.80,5.796
250.00,5.864
250.20,5.832
250.40,5.796
250.60,5.864
250.80,5.842
251.00,5.816
251.20,5.816
251.40,5.89
251.60,5.79
251.80,5.82
252.00,5.842
252.20,5.826
252.40,5.832
252.60,5.826
252.80,5.804
253.00,5.842
253.20,5.824
253.40,5.808
253.60,5.832
253.80,5.848
254.00,5.84
254.20,5.83
254.40,5.862
254.60,5.852
254.80,5.81
255.00,5.868
255.20,5.92
255.40,5.724
255.60,5.882
255.80,5.774
256.00,5.826
256.20,5.812
256.40,5.868
256.60,5.83
256.80,5.848
257.00,5.86
257.20,5.852
257.40,5.812
257.60,5.832
257.80,5.84
258.00,5.842
258.20,5.804
258.40,5.818
258.60,5.834
258.80,5.864
259.00,5.82
259.20,5.846
259.40,5.824
259.60,5.838
259.80,5.812
260.00,5.842
260.20,5.838
260.40,5.834
260.60,5.808
260.80,5.86
261.00,5.838
261.20,5.832
261.40,5.826
261.60,5.82
261.80,5.864
262.00,5.84
262.20,5.81
262.40,5.848
262.60,5.818
262.80,5.832
263.00,5.83
263.20,5.852
263.40,5.84
263.60,5.834
263.80,5.86
264.00,5.808
264.20,5.83
264.40,5.9
264.60,5.838
264.80,5.83
265.00,5.812
265.20,5.788
265.40,5.862
265.60,5.834
265.80,5.838
266.00,5.824
266.20,5.886
266.40,5.812
266.60,5.862
266.80,5.874
267.00,5.824
267.20,5.82
267.40,5.824
267.60,5.824
267.80,5.842
268.00,5.832
268.20,5.868
268.40,5.832
268.60,5.804
268.80,5.834
269.00,5.86
269.20,5.826
269.40,5.832
269.60,5.798
269.80,5.76
270.00,5.876
270.20,5.816
270.40,5.816
270.60,5.878
270.80,5.826
271.00,5.842
271.20,5.786
271.40,5.838
271.60,5.834
271.80,5.87
272.00,5.852
272.20,5.812
272.40,5.798
272.60,5.82
272.80,5.788
273.00,5.852
273.20,5.928
273.40,5.798
273.60,5.832
273.80,5.798
274.00,5.862
274.20,5.816
274.40,5.804
274.60,5.798
274.80,5.818
275.00,5.82
275.20,5.84
275.40,5.838
275.60,5.812
275.80,5.83
276.00,5.832
276.20,5.882
276.40,5.834
276.60,5.808
276.80,5.842
277.00,5.824
277.20,5.864
277.40,5.868
277.60,5.81
277.80,5.818
278.00,5.834
278.20,5.856
278.40,5.86
278.60,5.838
278.80,5.796
279.00,5.838
279.20,5.84
279.40,5.798
279.60,5.854
279.80,5.788
280.00,5.83
280.20,5.856
280.40,5.834
280.60,5.834
280.80,5.804
281.00,5.852
281.20,5.824
281.40,5.854
281.60,5.842
281.80,5.832
282.00,5.886
282.20,5.816
282.40,5.78
282.60,5.882
282.80,5.886
283.00,5.802
283.20,5.794
283.40,5.874
283.60,5.84
283.80,5.812
284.00,5.842
284.20,5.81
284.40,5.832
284.60,5.826
284.80,5.862
285.00,5.81
285.20,5.876
285.40,5.826
285.60,5.758
285.80,5.854
286.00,5.862
286.20,5.816
286.40,5.824
286.60,5.87
286.80,5.832
287.00,5.804
287.20,5.848
287.40,5.798
287.60,5.83
287.80,5.846
288.00,5.816
288.20,5.802
288.40,5.826
288.60,5.886
288.80,5.826
289.00,5.83
289.20,5.804
289.40,5.834
289.60,5.83
289.80,5.87
290.00,5.816
290.20,5.816
290.40,5.842
290.60,5.834
290.80,5.856
291.20,5.754
291.40,5.872
291.60,5.804
291.80,5.858
292.00,5.858
292.20,5.788
292.40,5.85
292.60,5.85
292.80,5.814
293.00,5.828
293.20,5.806
293.40,5.844
293.60,5.828
293.80,5.832
294.00,5.844
294.20,5.814
294.40,5.848
294.60,5.798
294.80,5.814
295.00,5.872
295.20,5.796
295.40,5.84
295.60,5.806
295.80,5.828
296.00,5.842
296.20,5.826
296.40,5.854
296.60,5.832
296.80,5.876
297.00,5.866
297.20,5.81
297.40,5.834
297.60,5.814
297.80,5.844
298.00,5.806
298.20,5.842
298.40,5.842
298.60,5.818
298.80,5.848
299.00,5.832
299.20,5.826
299.40,5.826
299.60,5.87
299.80,5.858
300.00,5.834
300.20,5.842
300.40,5.836
300.60,5.796
300.80,5.822
301.00,5.792
301.20,5.858
301.40,5.87
301.60,5.864
301.80,5.818
302.00,5.832
302.20,5.832
302.40,5.84
302.60,5.834
302.80,5.848
303.00,5.832
303.20,5.828
303.40,5.826
303.60,5.814
303.80,5.836
304.00,5.836
304.20,5.832
304.40,5.866
304.60,5.854
304.80,5.774
305.00,5.826
305.20,5.84
305.40,5.818
305.60,5.856
305.80,5.836
306.00,5.848
306.20,5.836
306.40,5.92
306.60,5.71
306.80,5.806
307.00,5.842
307.20,5.834
307.40,5.822
307.60,5.828
307.80,5.844
308.00,5.796
308.20,5.818
308.40,5.84
308.60,5.872
308.80,5.806
309.00,5.81
309.20,5.842
309.40,5.84
309.60,5.862
309.80,5.854
310.00,5.864
310.20,5.768
310.40,5.828
310.60,5.876
310.80,5.804
311.00,5.804
311.20,5.848
311.40,5.832
311.60,5.82
311.80,5.864
312.00,5.832
312.20,5.844
312.40,5.836
312.60,5.806
312.80,5.892
313.00,5.828
313.20,5.8
313.40,5.82
313.60,5.826
313.80,5.818
314.00,5.836
314.20,5.844
314.40,5.862
314.60,5.87
314.80,5.828
315.00,5.826
315.20,5.834
315.40,5.85
315.60,5.848
315.80,5.826
316.00,5.842
316.20,5.818
316.40,5.844
316.60,5.812
316.80,5.842
317.00,5.848
317.20,5.832
317.40,5.812
317.60,5.848
317.80,5.85
318.00,5.844
318.20,5.85
318.40,5.82
318.60,5.818
318.80,5.864
319.00,5.832
319.20,5.812
319.40,5.804
319.60,5.854
319.80,5.8
320.00,5.826
320.20,5.854
320.40,5.81
320.60,5.848
320.80,5.862
321.00,5.812
321.20,5.822
321.40,5.87
321.60,5.834
321.80,5.812
322.00,5.862
322.20,5.79
322.40,5.844
322.60,5.782
322.80,5.826
323.00,5.82
323.20,5.806
323.40,5.844
323.60,5.834
323.80,5.834
324.00,5.84
324.20,5.81
324.40,5.924
324.60,5.77
324.80,5.822
325.00,5.822
325.20,5.804
325.40,5.82
325.60,5.886
325.80,5.85
326.00,5.806
326.20,5.804
326.40,5.82
326.60,5.804
326.80,5.848
327.00,5.848
327.20,5.924
327.40,5.876
327.60,5.818
327.80,5.798
328.00,5.806
328.20,5.812
328.40,5.842
328.60,5.77
328.80,5.876
329.00,5.81
329.20,5.858
329.40,5.84
329.60,5.84
329.80,5.828
330.00,5.814
330.20,5.804
330.40,5.842
330.60,5.832
330.80,5.876
331.00,5.87
331.20,5.804
331.40,5.822
331.60,5.892
331.80,5.84
332.00,5.814
332.20,5.832
332.40,5.832
332.60,5.81
332.80,5.832
333.00,5.848
333.20,5.818
333.40,5.826
333.60,5.848
333.80,5.828
334.00,5.836
334.20,5.872
334.40,5.826
334.60,5.836
334.80,5.792
335.00,5.82
335.20,5.844
335.40,5.85
335.60,5.85
335.80,5.788
336.00,5.864
336.20,5.828
336.40,5.79
336.60,5.834
336.80,5.828
337.00,5.822
337.20,5.888
337.40,5.77
337.60,5.828
337.80,5.834
338.00,5.828
338.20,5.832
338.40,5.836
338.60,5.82
338.80,5.848
339.00,5.82
339.20,5.828
339.40,5.84
339.60,5.834
339.80,5.836
340.00,5.8
340.20,5.8
340.40,5.864
340.60,5.826
340.80,5.854
341.00,5.826
341.20,5.826
341.40,5.814
341.60,5.85
341.80,5.804
342.00,5.782
342.20,5.844
342.40,5.952
342.60,5.738
342.80,5.836
343.00,5.87
343.20,5.814
343.40,5.798
343.60,5.836
343.80,5.8
344.00,5.842
344.20,5.818
344.40,5.858
344.60,5.796
344.80,5.826
345.00,5.886
345.20,5.804
345.40,5.796
345.60,5.836
345.80,5.862
346.00,5.818
346.20,5.856
346.40,5.812
346.60,5.832
346.80,5.878
347.00,5.844
347.20,5.804
347.40,5.828
347.60,5.788
347.80,5.814
348.00,5.908
348.20,5.806
348.40,5.872
348.60,5.814
348.80,5.858
349.00,5.828
349.20,5.828
349.40,5.858
349.60,5.856
349.80,5.818
350.00,5.822
350.20,5.814
350.40,5.872
350.60,5.792
350.80,5.87
351.00,5.822
351.20,5.788
351.40,5.826
351.60,5.812
351.80,5.886
352.00,5.848
352.20,5.77
352.40,5.856
352.60,5.836
352.80,5.818
353.00,5.836
353.20,5.828
353.40,5.85
353.60,5.822
353.80,5.834
354.00,5.856
354.20,5.826
354.40,5.79
354.60,5.834
354.80,5.82
355.00,5.858
355.20,5.77
355.40,5.842
355.60,5.842
355.80,5.834
356.00,5.842
356.20,5.788
356.40,5.854
356.60,5.788
356.80,5.862
357.00,5.84
357.20,5.836
357.40,5.828
357.60,5.822
357.80,5.8
358.00,5.876
358.20,5.826
358.40,5.832
358.60,5.842
358.80,5.844
359.00,5.834
359.20,5.834
359.40,5.822
359.60,5.856
359.80,5.8
360.00,5.85
360.20,5.832
360.40,5.958
360.60,5.688
360.80,5.826
361.00,5.848
361.20,5.828
361.40,5.81
361.60,5.832
361.80,5.864
362.00,5.832
362.20,5.818
362.40,5.854
362.60,5.818
362.80,5.79
363.00,5.842
363.20,5.858
363.40,5.828
363.60,5.87
363.80,5.814
364.00,5.854
364.20,5.844
364.40,5.854
364.60,5.792
364.80,5.818
365.00,5.812
365.20,5.842
365.40,5.836
365.60,5.886
365.80,5.8
366.00,5.828
366.20,5.878
366.40,5.82
366.60,5.788
366.80,5.826
367.00,5.848
367.20,5.828
367.40,5.836
367.60,5.854
367.80,5.814
368.00,5.842
368.20,5.842
368.40,5.85
368.60,5.784
368.80,5.8
369.00,5.848
369.20,5.848
369.40,5.828
369.60,5.826
369.80,5.856
370.00,5.854
370.20,5.81
370.40,5.842
370.60,5.836
370.80,5.8
371.00,5.836
371.20,5.812
371.40,5.822
371.60,5.87
371.80,5.842
372.00,5.804
372.20,5.814
372.40,5.836
372.60,5.834
372.80,5.8
373.00,5.8
373.20,5.85
373.40,5.836
373.60,5.87
373.80,5.79
374.00,5.814
374.20,5.836
374.40,5.826
374.60,5.832
374.80,5.81
375.00,5.848
375.20,5.822
375.40,5.834
375.60,5.814
375.80,5.826
376.00,5.844
376.20,5.822
376.40,5.812
376.60,5.88
376.80,5.818
377.00,5.832
377.20,5.796
377.40,5.834
377.60,5.858
377.80,5.85
378.00,5.822
378.20,5.85
378.40,5.932
378.60,5.744
378.80,5.826
379.00,5.818
379.20,5.826
379.40,5.842
379.60,5.87
379.80,5.828
380.00,5.812
380.20,5.842
380.40,5.864
380.60,5.832
380.80,5.856
381.00,5.826
381.20,5.792
381.40,5.858
381.60,5.856
381.80,5.826
382.00,5.828
382.20,5.844
382.40,5.836
382.60,5.856
382.80,5.826
383.00,5.84
383.20,5.81
383.40,5.806
383.60,5.856
383.80,5.866
384.00,5.834
384.20,5.798
384.40,5.842
384.60,5.848
384.80,5.84
385.00,5.836
385.20,5.844
385.40,5.832
385.60,5.818
385.80,5.864
386.00,5.81
386.20,5.82
386.40,5.834
386.60,5.854
386.80,5.814
387.00,5.82
387.20,5.848
387.40,5.842
387.60,5.84
387.80,5.776
388.00,5.84
388.20,5.856
388.40,5.804
388.60,5.826
388.80,5.876
389.00,5.854
389.20,5.87
389.40,5.806
389.60,5.81
389.80,5.856
390.00,5.848
390.20,5.778
390.40,5.822
390.60,5.82
390.80,5.854
391.00,5.788
391.20,5.79
391.40,5.844
391.60,5.886
391.80,5.85
392.00,5.832
392.20,5.806
392.40,5.828
392.60,5.828
392.80,5.848
393.00,5.828
393.20,5.812
393.40,5.85
393.60,5.866
393.80,5.814
394.00,5.79
394.20,5.834
394.40,5.806
394.60,5.834
394.80,5.826
395.00,5.828
395.20,5.806
395.40,5.862
395.60,5.834
395.80,5.864
396.00,5.822
396.20,5.818
396.40,5.902
396.60,5.778
396.80,5.818
397.00,5.84
397.20,5.806
397.40,5.85
397.60,5.826
397.80,5.82
398.00,5.842
398.20,5.836
398.40,5.836
398.60,5.848
398.80,5.834
399.00,5.836
399.20,5.806
399.40,5.784
399.60,5.862
399.80,5.832
400.00,5.854
400.20,5.854
400.40,5.85
400.60,5.818
400.80,5.856
401.00,5.836
401.20,5.77
401.40,5.834
401.60,5.822
401.80,5.842
402.00,5.87
402.20,5.848
402.40,5.79
402.60,5.822
402.80,5.812
403.00,5.864
403.20,5.826
403.40,5.892
403.60,5.814
403.80,5.82
404.00,5.818
404.20,5.836
404.40,5.856
404.60,5.814
404.80,5.812
405.00,5.834
405.20,5.832
405.40,5.862
405.60,5.804
405.80,5.862
406.00,5.82
406.20,5.804
406.40,5.87
406.60,5.826
406.80,5.872
407.00,5.818
407.20,5.836
407.40,5.818
407.60,5.804
407.80,5.822
408.00,5.836
408.20,5.84
408.40,5.84
408.60,5.782
408.80,5.826
409.00,5.812
409.20,5.836
409.40,5.832
409.60,5.826
409.80,5.834
410.00,5.812
410.20,5.8
410.40,5.826
410.60,5.82
410.80,5.826
411.00,5.886
411.20,5.82
411.40,5.866
411.60,5.782
411.80,5.82
412.00,5.834
412.20,5.828
412.40,5.828
412.60,5.776
412.80,5.854
413.00,5.858
413.20,5.856
413.40,5.844
413.60,5.798
413.80,5.84
414.00,5.872
414.20,5.834
414.40,5.938
414.60,5.756
414.80,5.812
415.00,5.864
415.20,5.812
415.40,5.828
415.60,5.792
415.80,5.834
416.00,5.776
416.20,5.862
416.40,5.836
416.60,5.848
416.80,5.84
417.00,5.836
417.20,5.854
417.40,5.862
417.60,5.82
417.80,5.804
418.00,5.836
418.20,5.844
418.40,5.856
418.60,5.822
418.80,5.862
419.00,5.832
419.20,5.862
419.40,5.858
419.60,5.784
419.80,5.804
420.00,5.814
420.20,5.862
420.40,5.832
420.60,5.842
420.80,5.826
421.00,5.832
421.20,5.826
421.40,5.862
421.60,5.82
421.80,5.796
422.00,5.844
422.20,5.784
422.40,5.836
422.60,5.87
422.80,5.822
423.00,5.87
423.20,5.862
423.40,5.872
423.60,5.85
423.80,5.822
424.00,5.796
424.20,5.826
424.40,5.836
424.60,5.85
424.80,5.832
425.00,5.836
425.20,5.762
425.40,5.828
425.60,5.866
425.80,5.796
426.00,5.836
426.20,5.858
426.40,5.806
426.60,5.812
426.80,5.82
427.00,5.828
427.20,5.832
427.40,5.84
427.60,5.834
427.80,5.842
428.00,5.85
428.20,5.792
428.40,5.844
428.60,5.856
428.80,5.848
429.00,5.828
429.20,5.836
429.40,5.82
429.60,5.826
429.80,5.864
430.00,5.81
430.20,5.834
430.40,5.844
430.60,5.818
430.80,5.848
431.00,5.848
431.20,5.814
431.40,5.844
431.60,5.834
431.80,5.854
432.00,5.836
432.20,5.818
432.40,5.942
432.60,5.704
432.80,5.836
433.00,5.844
433.20,5.814
433.40,5.854
433.60,5.844
433.80,5.842
434.00,5.826
434.20,5.814
434.40,5.82
434.60,5.84
434.80,5.85
435.00,5.834
435.20,5.826
435.40,5.844
435.60,5.836
435.80,5.826
436.00,5.84
436.20,5.866
436.40,5.782
436.60,5.822
436.80,5.804
437.00,5.836
437.20,5.85
437.40,5.81
437.60,5.848
437.80,5.836
438.00,5.844
438.20,5.818
438.40,5.836
438.60,5.832
438.80,5.826
439.00,5.812
439.20,5.8
439.40,5.822
439.60,5.836
439.80,5.842
440.00,5.814
440.20,5.832
440.40,5.832
440.60,5.8
440.80,5.834
441.00,5.796
441.20,5.84
441.40,5.834
441.60,5.828
441.80,5.814
442.00,5.834
442.20,5.834
442.40,5.848
442.60,5.826
442.80,5.79
443.00,5.876
443.20,5.81
443.40,5.826
443.60,5.826
443.80,5.84
444.00,5.806
444.20,5.858
444.40,5.81
444.60,5.832
444.80,5.826
445.00,5.864
445.20,5.848
445.40,5.836
445.60,5.834
445.80,5.826
446.00,5.84
446.20,5.836
446.40,5.796
446.60,5.88
446.80,5.82
447.00,5.806
447.20,5.832
447.40,5.828
447.60,5.814
447.80,5.84
448.00,5.842
448.20,5.848
448.40,5.828
448.60,5.84
448.80,5.804
449.00,5.836
449.20,5.834
449.40,5.814
449.60,5.844
449.80,5.782
450.00,5.834
450.20,5.858
450.40,5.944
450.60,5.708
450.80,5.828
451.00,5.856
451.20,5.828
451.40,5.848
451.60,5.81
451.80,5.796
452.00,5.854
452.20,5.844
452.40,5.822
452.60,5.84
452.80,5.854
453.00,5.814
453.20,5.804
453.40,5.814
453.60,5.836
453.80,5.826
454.00,5.842
454.20,5.858
454.40,5.844
454.60,5.812
454.80,5.84
455.00,5.814
455.20,5.886
455.40,5.814
455.60,5.844
455.80,5.806
456.00,5.85
456.20,5.792
456.40,5.822
456.60,5.858
456.80,5.834
457.00,5.814
457.20,5.844
457.40,5.836
457.60,5.8
457.80,5.856
458.00,5.864
458.20,5.818
458.40,5.828
458.60,5.826
458.80,5.782
459.00,5.844
459.20,5.876
459.40,5.866
459.60,5.858
459.80,5.796
460.00,5.792
460.20,5.85
460.40,5.792
460.60,5.826
460.80,5.848
461.00,5.864
461.20,5.826
461.40,5.848
461.60,5.844
461.80,5.834
462.00,5.806
462.20,5.798
462.40,5.872
462.60,5.842
462.80,5.812
463.00,5.82
463.20,5.85
463.40,5.84
463.60,5.848
463.80,5.81
464.00,5.832
464.20,5.84
464.40,5.798
464.60,5.836
464.80,5.854
465.00,5.84
465.20,5.844
465.40,5.81
465.60,5.828
465.80,5.872
466.00,5.836
466.20,5.826
466.40,5.828
466.60,5.848
466.80,5.842
467.00,5.87
467.20,5.826
467.40,5.814
467.60,5.826
467.80,5.844
468.00,5.834
468.20,5.796
468.40,5.898
468.60,5.734
468.80,5.858
469.00,5.812
469.20,5.826
469.40,5.836
469.60,5.848
469.80,5.856
470.00,5.804
470.20,5.844
470.40,5.862
470.60,5.804
470.80,5.762
471.00,5.892
471.20,5.858
471.40,5.822
471.60,5.828
471.80,5.836
472.00,5.84
472.20,5.822
472.40,5.834
472.60,5.836
472.80,5.85
473.00,5.832
473.20,5.82
473.40,5.832
473.60,5.834
473.80,5.806
474.00,5.82
474.20,5.848
474.40,5.826
474.60,5.82
474.80,5.822
475.00,5.82
475.20,5.798
475.40,5.834
475.60,5.782
475.80,5.864
476.00,5.854
476.20,5.832
476.40,5.85
476.60,5.814
476.80,5.818
477.00,5.826
477.20,5.812
477.40,5.834
477.60,5.842
477.80,5.848
478.00,5.848
478.20,5.844
478.40,5.76
478.60,5.842
478.80,5.88
479.00,5.812
479.20,5.804
479.40,5.842
479.60,5.84
479.80,5.872
480.00,5.8
480.20,5.854
480.40,5.834
480.60,5.822
480.80,5.848
481.00,5.82
481.20,5.842
481.40,5.84
481.60,5.856
481.80,5.85
482.00,5.826
482.20,5.804
482.40,5.87
482.60,5.828
482.80,5.814
483.00,5.842
483.20,5.828
483.40,5.826
483.60,5.836
483.80,5.842
484.00,5.82
484.20,5.832
484.40,5.814
484.60,5.856
484.80,5.902
485.00,5.798
485.20,5.784
485.40,5.862
485.60,5.818
485.80,5.9
486.00,5.792
486.20,5.842
486.40,5.91
486.60,5.756
486.80,5.87
487.00,5.832
487.20,5.826
487.40,5.782
487.60,5.844
487.80,5.79
488.00,5.844
488.20,5.84
488.40,5.862
488.60,5.818
488.80,5.788
489.00,5.848
489.20,5.848
489.40,5.866
489.60,5.842
489.80,5.82
490.00,5.81
490.20,5.812
490.40,5.79
490.60,5.806
490.80,5.842
491.00,5.864
491.20,5.826
491.40,5.832
491.60,5.836
491.80,5.798
492.00,5.826
492.20,5.87
492.40,5.8
492.60,5.822
492.80,5.782
493.00,5.832
493.20,5.854
493.40,5.87
493.60,5.876
493.80,5.826
494.00,5.828
494.20,5.844
494.40,5.822
494.60,5.826
494.80,5.85
495.00,5.826
495.20,5.866
495.40,5.782
495.60,5.836
495.80,5.878
496.00,5.826
496.20,5.79
496.40,5.82
496.60,5.814
496.80,5.858
497.00,5.87
497.20,5.854
497.40,5.814
497.60,5.85
497.80,5.81
498.00,5.828
498.20,5.844
498.40,5.832
498.60,5.85
498.80,5.806
499.00,5.854
499.20,5.842
499.40,5.812
499.60,5.804
499.80,5.812
500.00,5.87
500.20,5.828
500.40,5.798
500.60,5.832
500.80,5.826
501.00,5.818
501.20,5.836
501.40,5.826
501.60,5.79
501.80,5.864
502.00,5.85
502.20,5.822
502.40,5.866
502.60,5.826
502.80,5.812
503.00,5.792
503.20,5.886
503.40,5.804
503.60,5.848
503.80,5.82
504.00,5.848
504.20,5.818
504.40,5.946
504.60,5.766
504.80,5.834
505.00,5.826
505.20,5.814
505.40,5.834
505.60,5.82
505.80,5.792
506.00,5.836
506.20,5.88
506.40,5.836
506.60,5.82
506.80,5.814
507.00,5.84
507.20,5.784
507.40,5.832
507.60,5.85
507.80,5.782
508.00,5.834
508.20,5.884
508.40,5.81
508.60,5.826
508.80,5.822
509.00,5.826
509.20,5.876
509.40,5.812
509.60,5.84
509.80,5.82
510.00,5.862
510.20,5.776
510.40,5.832
510.60,5.826
510.80,5.85
511.00,5.862
511.20,5.842
511.40,5.796
511.60,5.836
511.80,5.832
512.00,5.814
512.20,5.814
512.40,5.836
512.60,5.87
512.80,5.796
513.00,5.836
513.20,5.836
513.40,5.8
513.60,5.836
513.80,5.834
514.00,5.814
514.20,5.856
514.40,5.79
514.60,5.876
514.80,5.84
515.00,5.826
515.20,5.836
515.40,5.788
515.60,5.864
515.80,5.826
516.00,5.858
516.20,5.844
516.40,5.856
516.60,5.832
516.80,5.836
517.00,5.834
517.20,5.834
517.40,5.828
517.60,5.812
517.80,5.836
518.00,5.836
518.20,5.826
518.40,5.84
518.60,5.908
518.80,5.8
519.00,5.776
519.20,5.826
519.40,5.828
519.60,5.814
519.80,5.858
520.00,5.854
520.20,5.81
520.40,5.806
520.60,5.832
520.80,5.848
521.00,5.848
521.20,5.822
521.40,5.836
521.60,5.85
521.80,5.856
522.00,5.792
522.20,5.848
522.40,5.91
522.60,5.748
522.80,5.84
523.00,5.848
523.20,5.818
523.40,5.826
523.60,5.826
523.80,5.822
524.00,5.828
524.20,5.828
524.40,5.806
524.60,5.828
524.80,5.858
525.00,5.754
525.20,5.844
525.40,5.854
525.60,5.866
525.80,5.844
526.00,5.844
526.20,5.76
526.40,5.844
526.60,5.87
526.80,5.832
527.00,5.834
527.20,5.836
527.40,5.864
527.60,5.822
527.80,5.832
528.00,5.854
528.20,5.792
528.40,5.79
528.60,5.87
528.80,5.844
529.00,5.832
529.20,5.826
529.40,5.834
529.60,5.796
529.80,5.834
530.00,5.848
530.20,5.812
530.40,5.85
530.60,5.848
530.80,5.858
531.00,5.842
531.20,5.834
531.40,5.836
531.60,5.814
531.80,5.804
532.00,5.884
532.20,5.814
532.40,5.826
532.60,5.822
532.80,5.844
533.00,5.842
533.20,5.82
533.40,5.826
533.60,5.858
533.80,5.812
534.00,5.826
534.20,5.826
534.40,5.822
534.60,5.864
534.80,5.81
535.00,5.818
535.20,5.81
535.40,5.85
535.60,5.862
535.80,5.848
536.00,5.842
536.20,5.804
536.40,5.822
536.60,5.84
536.80,5.848
537.00,5.856
537.20,5.836
537.40,5.806
537.60,5.828
537.80,5.84
538.00,5.828
538.20,5.812
538.40,5.84
538.60,5.858
538.80,5.866
539.00,5.788
539.20,5.858
539.40,5.87
539.60,5.812
539.80,5.782
540.00,5.826
540.20,5.862
540.40,5.96
540.60,5.732
540.80,5.864
541.00,5.766
541.20,5.84
541.40,5.826
541.60,5.84
541.80,5.826
542.00,5.818
542.20,5.864
542.40,5.832
542.60,5.806
542.80,5.804
543.00,5.872
543.20,5.804
543.40,5.892
543.60,5.82
543.80,5.828
544.00,5.822
544.20,5.798
544.40,5.862
544.60,5.804
544.80,5.81
545.00,5.834
545.20,5.826
545.40,5.84
545.60,5.81
545.80,5.81
546.00,5.9
546.20,5.81
546.40,5.804
546.60,5.8
546.80,5.866
547.00,5.856
547.20,5.876
547.40,5.81
547.60,5.828
547.80,5.862
548.00,5.864
548.20,5.834
548.40,5.812
548.60,5.856
548.80,5.81
549.00,5.842
549.20,5.826
549.40,5.836
549.60,5.844
549.80,5.85
550.00,5.836
550.20,5.822
550.40,5.836
550.60,5.87
550.80,5.81
551.00,5.832
551.20,5.81
551.40,5.826
551.60,5.858
551.80,5.836
552.00,5.822
552.20,5.806
552.40,5.84
552.60,5.828
552.80,5.872
553.00,5.818
553.20,5.834
553.40,5.828
553.60,5.834
553.80,5.85
554.00,5.82
554.20,5.834
554.40,5.854
554.60,5.822
554.80,5.806
555.00,5.814
555.20,5.856
555.40,5.814
555.60,5.848
555.80,5.82
556.00,5.856
556.20,5.788
556.40,5.836
556.60,5.866
556.80,5.872
557.00,5.818
557.20,5.814
557.40,5.81
557.60,5.848
557.80,5.826
558.00,5.856
558.20,5.826
558.40,5.902
558.60,5.744
558.80,5.814
559.00,5.872
559.20,5.832
559.40,5.85
559.60,5.864
559.80,5.804
560.00,5.826
560.20,5.832
560.40,5.832
560.60,5.806
560.80,5.806
561.00,5.858
561.20,5.82
561.40,5.828
561.60,5.804
561.80,5.85
562.00,5.842
562.20,5.862
562.40,5.84
562.60,5.844
562.80,5.814
563.00,5.798
563.20,5.834
563.40,5.82
563.60,5.858
563.80,5.85
564.00,5.848
564.20,5.814
564.40,5.834
564.60,5.79
564.80,5.84
565.00,5.862
565.20,5.842
565.40,5.84
565.60,5.804
565.80,5.834
566.00,5.826
566.20,5.832
566.40,5.85
566.60,5.818
566.80,5.784
567.00,5.828
567.20,5.862
567.40,5.836
567.60,5.832
567.80,5.876
568.00,5.814
568.20,5.832
568.40,5.826
568.60,5.866
568.80,5.776
569.00,5.822
569.20,5.85
569.40,5.804
569.60,5.864
569.80,5.84
570.00,5.828
570.20,5.834
570.40,5.806
570.60,5.818
570.80,5.85
571.00,5.814
571.20,5.814
571.40,5.788
571.60,5.806
571.80,5.834
572.00,5.84
572.20,5.884
572.40,5.84
572.60,5.82
572.80,5.84
573.00,5.81
573.20,5.812
573.40,5.85
573.60,5.862
573.80,5.828
574.00,5.81
574.20,5.826
574.40,5.842
574.60,5.82
574.80,5.858
575.00,5.842
575.20,5.812
575.40,5.864
575.60,5.804
575.80,5.806
576.00,5.906
576.20,5.814
576.40,5.856
576.60,5.754
576.80,5.804
577.00,5.796
577.20,5.834
577.40,5.836
577.60,5.872
577.80,5.834
578.00,5.822
578.20,5.87
578.40,5.828
578.60,5.798
578.80,5.836
579.00,5.842
579.20,5.854
579.40,5.82
579.60,5.858
579.80,5.858
580.00,5.848
580.20,5.848
580.40,5.81
580.60,5.834
580.80,5.826
581.00,5.806
581.20,5.828
581.40,5.826
581.60,5.848
581.80,5.84
582.00,5.85
582.20,5.8
582.40,5.88
582.60,5.834
582.80,5.814
583.00,5.87
583.20,5.828
583.40,5.842
583.60,5.832
583.80,5.792
584.00,5.826
584.20,5.834
584.40,5.878
584.60,5.814
584.80,5.864
585.00,5.828
585.20,5.814
585.40,5.858
585.60,5.842
585.80,5.842
586.00,5.818
586.20,5.836
586.40,5.826
586.60,5.836
586.80,5.784
587.00,5.84
587.20,5.844
587.40,5.834
587.60,5.792
587.80,5.85
588.00,5.844
588.20,5.806
588.40,5.832
588.60,5.862
588.80,5.79
589.00,5.864
589.20,5.836
589.40,5.88
589.60,5.814
589.80,5.784
590.00,5.814
590.20,5.842
590.40,5.814
590.60,5.806
590.80,5.87
591.00,5.8
591.40,5.848
591.60,5.952
591.80,5.718
592.00,5.806
592.20,5.886
592.40,5.832
592.60,5.826
592.80,5.81
593.00,5.872
593.20,5.826
593.40,5.832
593.60,5.856
593.80,5.856
594.00,5.796
594.20,5.834
594.40,5.814
594.60,5.812
594.80,5.812
595.00,5.836
595.20,5.856
595.40,5.834
595.60,5.856
595.80,5.856
596.00,5.806
596.20,5.8
596.40,5.804
596.60,5.844
596.80,5.876
597.00,5.798
597.20,5.826
597.40,5.798
597.60,5.848
597.80,5.828
598.00,5.84
598.20,5.812
598.40,5.876
598.60,5.822
598.80,5.836
599.00,5.81
599.20,5.814
599.40,5.87
599.60,5.826
599.80,5.878
600.00,5.814
600.20,5.776
600.40,5.82
600.60,5.85
600.80,5.856
601.00,5.862
601.20,5.79
601.40,5.822
601.60,5.864
601.80,5.826
602.00,5.826
602.20,5.832
602.40,5.848
602.60,5.834
602.80,5.85
603.00,5.844
603.20,5.8
603.40,5.854
603.60,5.854
603.80,5.826
604.00,5.834
604.20,5.866
604.40,5.804
604.60,5.834
604.80,5.844
605.00,5.82
605.20,5.826
605.40,5.854
605.60,5.82
605.80,5.822
606.00,5.85
606.20,5.812
606.40,5.858
606.60,5.854
606.80,5.784
607.00,5.878
607.20,5.834
607.40,5.81
607.60,5.884
607.80,5.81
608.00,5.822
608.20,5.834
608.40,5.806
608.60,5.836
608.80,5.82
609.00,5.812
609.20,5.826
609.40,5.834
609.60,5.902
609.80,5.716
610.00,5.82
610.20,5.826
610.40,5.85
610.60,5.854
610.80,5.842
611.00,5.792
611.20,5.836
611.40,5.836
611.60,5.82
611.80,5.826
612.00,5.848
612.20,5.858
612.40,5.806
612.60,5.872
612.80,5.826
613.00,5.85
613.20,5.776
613.40,5.858
613.60,5.782
613.80,5.902
614.00,5.848
614.20,5.804
614.40,5.856
614.60,5.82
614.80,5.792
615.00,5.87
615.20,5.834
615.40,5.87
615.60,5.854
615.80,5.804
616.00,5.866
616.20,5.826
616.40,5.804
616.60,5.856
616.80,5.81
617.00,5.836
617.20,5.856
617.40,5.84
617.60,5.796
617.80,5.848
618.00,5.828
618.20,5.84
618.40,5.88
618.60,5.826
618.80,5.814
619.00,5.804
619.20,5.826
619.40,5.858
619.60,5.858
619.80,5.82
620.00,5.826
620.20,5.85
620.40,5.862
620.60,5.798
620.80,5.796
621.00,5.856
621.20,5.84
621.40,5.812
621.60,5.804
621.80,5.854
622.00,5.854
622.20,5.84
622.40,5.842
622.60,5.806
622.80,5.82
623.00,5.842
623.20,5.82
623.40,5.848
623.60,5.804
623.80,5.836
624.00,5.8
624.20,5.862
624.40,5.828
624.60,5.842
624.80,5.806
625.00,5.826
625.20,5.826
625.40,5.854
625.60,5.836
625.80,5.81
626.00,5.81
626.20,5.848
626.40,5.854
626.60,5.842
626.80,5.804
627.00,5.85
627.20,5.866
627.40,5.82
627.60,5.938
627.80,5.74
628.00,5.856
628.20,5.836
628.40,5.848
628.60,5.82
628.80,5.826
629.00,5.804
629.20,5.848
629.40,5.854
629.60,5.826
629.80,5.826
630.00,5.836
630.20,5.826
630.40,5.832
630.60,5.854
630.80,5.806
631.00,5.81
631.20,5.844
631.40,5.842
631.60,5.87
631.80,5.832
632.00,5.822
632.20,5.862
632.40,5.79
632.60,5.836
632.80,5.836
633.00,5.828
633.20,5.834
633.40,5.832
633.60,5.812
633.80,5.836
634.00,5.82
634.20,5.814
634.40,5.84
634.60,5.832
634.80,5.872
635.00,5.8
635.20,5.84
635.40,5.826
635.60,5.822
635.80,5.826
636.00,5.848
636.20,5.828
636.40,5.804
636.60,5.856
636.80,5.822
637.00,5.814
637.20,5.822
637.40,5.84
637.60,5.842
637.80,5.848
638.00,5.828
638.20,5.836
638.40,5.844
638.60,5.818
638.80,5.812
639.00,5.844
639.20,5.836
639.40,5.814
639.60,5.862
639.80,5.782
640.00,5.826
640.20,5.82
640.40,5.82
640.60,5.828
640.80,5.842
641.00,5.87
641.20,5.834
641.40,5.844
641.60,5.822
641.80,5.81
642.00,5.82
642.20,5.836
642.40,5.82
642.60,5.84
642.80,5.828
643.00,5.858
643.20,5.836
643.40,5.79
643.60,5.826
643.80,5.814
644.00,5.878
644.20,5.848
644.40,5.82
644.60,5.82
644.80,5.828
645.00,5.822
645.20,5.85
645.40,5.832
645.60,5.942
645.80,5.79
646.00,5.842
646.20,5.796
646.40,5.806
646.60,5.842
646.80,5.826
647.00,5.784
647.20,5.844
647.40,5.842
647.60,5.858
647.80,5.79
648.00,5.866
648.20,5.826
648.40,5.844
648.60,5.854
648.80,5.812
649.00,5.862
649.20,5.796
649.40,5.844
649.60,5.888
649.80,5.792
650.00,5.888
650.20,5.822
650.40,5.818
650.60,5.832
650.80,5.842
651.00,5.844
651.20,5.832
651.40,5.848
651.60,5.85
651.80,5.81
652.00,5.792
652.20,5.864
652.40,5.828
652.60,5.84
652.80,5.822
653.00,5.84
653.20,5.848
653.40,5.832
653.60,5.856
653.80,5.796
654.00,5.834
654.20,5.85
654.40,5.832
654.60,5.82
654.80,5.834
655.00,5.806
655.20,5.834
655.40,5.836
655.60,5.82
655.80,5.854
656.00,5.828
656.20,5.822
656.40,5.87
656.60,5.79
656.80,5.864
657.00,5.84
657.20,5.84
657.40,5.848
657.60,5.848
657.80,5.828
658.00,5.792
658.20,5.81
658.40,5.892
658.60,5.804
658.80,5.828
659.00,5.834
659.20,5.834
659.40,5.834
659.60,5.79
659.80,5.878
660.00,5.766
660.20,5.848
660.40,5.82
660.60,5.848
660.80,5.792
661.00,5.82
661.20,5.85
661.40,5.814
661.60,5.828
661.80,5.84
662.00,5.842
662.20,5.878
662.40,5.844
662.60,5.832
662.80,5.866
663.00,5.834
663.20,5.79
663.40,5.832
663.60,5.902
663.80,5.774
664.00,5.826
664.20,5.87
664.40,5.804
664.60,5.836
664.80,5.85
665.00,5.81
665.20,5.864
665.40,5.88
665.60,5.84
665.80,5.832
666.00,5.792
666.20,5.862
666.40,5.84
666.60,5.8
666.80,5.844
667.00,5.804
667.20,5.806
667.40,5.854
667.60,5.84
667.80,5.81
668.00,5.826
668.20,5.854
668.40,5.818
668.60,5.87
668.80,5.792
669.00,5.876
669.20,5.826
669.40,5.85
669.60,5.822
669.80,5.826
670.00,5.832
670.20,5.842
670.40,5.862
670.60,5.826
670.80,5.8
671.00,5.796
671.20,5.892
671.40,5.788
671.60,5.822
671.80,5.85
672.00,5.812
672.20,5.84
672.40,5.814
672.60,5.85
672.80,5.814
673.00,5.836
673.20,5.826
673.40,5.798
673.60,5.87
673.80,5.842
674.00,5.836
674.20,5.85
674.40,5.834
674.60,5.804
674.80,5.814
675.00,5.834
675.20,5.812
675.40,5.872
675.60,5.818
675.80,5.844
676.00,5.842
676.20,5.81
676.40,5.812
676.60,5.898
676.80,5.836
677.00,5.828
677.20,5.828
677.40,5.834
677.60,5.834
677.80,5.82
678.00,5.85
678.20,5.862
678.40,5.812
678.60,5.822
678.80,5.834
679.00,5.828
679.20,5.836
679.40,5.796
679.60,5.814
679.80,5.84
680.00,5.856
680.20,5.844
680.40,5.856
680.60,5.814
680.80,5.836
681.00,5.844
681.20,5.834
681.40,5.84
681.60,5.858
681.80,5.744
682.00,5.82
682.20,5.836
682.40,5.792
682.60,5.826
682.80,5.884
683.00,5.828
683.20,5.822
683.40,5.828
683.60,5.864
683.80,5.834
684.00,5.812
684.20,5.832
684.40,5.85
684.60,5.84
684.80,5.828
685.00,5.806
685.20,5.82
685.40,5.844
685.60,5.832
685.80,5.856
686.00,5.832
686.20,5.818
686.40,5.87
686.60,5.804
686.80,5.778
687.00,5.872
687.20,5.85
687.40,5.836
687.60,5.836
687.80,5.826
688.00,5.84
688.20,5.822
688.40,5.834
688.60,5.812
688.80,5.814
689.00,5.844
689.20,5.862
689.40,5.814
689.60,5.848
689.80,5.856
690.00,5.8
690.20,5.87
690.40,5.814
690.60,5.818
690.80,5.836
691.00,5.818
691.20,5.826
691.40,5.848
691.60,5.856
691.80,5.834
692.00,5.814
692.20,5.826
692.40,5.832
692.60,5.87
692.80,5.792
693.00,5.842
693.20,5.828
693.40,5.804
693.60,5.85
693.80,5.866
694.00,5.8
694.20,5.818
694.40,5.826
694.60,5.85
694.80,5.806
695.00,5.842
695.20,5.82
695.40,5.862
695.60,5.834
695.80,5.82
696.00,5.784
696.20,5.85
696.40,5.842
696.60,5.84
696.80,5.814
697.00,5.81
697.20,5.844
697.40,5.88
697.60,5.848
697.80,5.812
698.00,5.828
698.20,5.85
698.40,5.822
698.60,5.834
698.80,5.834
699.00,5.822
699.20,5.814
699.40,5.828
699.60,5.91
699.80,5.748
700.00,5.856
700.20,5.848
700.40,5.822
700.60,5.836
700.80,5.82
701.00,5.836
701.20,5.826
701.40,5.862
701.60,5.814
701.80,5.826
702.00,5.822
702.20,5.836
702.40,5.836
702.60,5.822
702.80,5.81
703.00,5.842
703.20,5.87
703.40,5.82
703.60,5.826
703.80,5.826
704.00,5.822
704.20,5.862
704.40,5.788
704.60,5.828
704.80,5.87
705.00,5.832
705.20,5.844
705.40,5.828
705.60,5.834
705.80,5.822
706.00,5.82
706.20,5.836
706.40,5.822
706.60,5.842
706.80,5.844
707.00,5.822
707.20,5.81
707.40,5.842
707.60,5.822
707.80,5.836
708.00,5.81
708.20,5.856
708.40,5.82
708.60,5.84
708.80,5.804
709.00,5.822
709.20,5.84
709.40,5.87
709.60,5.822
709.80,5.81
710.00,5.818
710.20,5.818
710.40,5.834
710.60,5.8
710.80,5.85
711.00,5.842
711.20,5.804
711.40,5.898
711.60,5.84
711.80,5.842
712.00,5.804
712.20,5.8
712.40,5.85
712.60,5.834
712.80,5.834
713.00,5.826
713.20,5.82
713.40,5.844
713.60,5.848
713.80,5.854
714.00,5.812
714.20,5.792
714.40,5.872
714.60,5.856
714.80,5.814
715.00,5.822
715.20,5.818
715.40,5.82
715.60,5.864
715.80,5.774
716.00,5.804
716.20,5.906
716.40,5.884
716.60,5.762
716.80,5.822
717.00,5.85
717.20,5.832
717.40,5.85
717.60,5.966
717.80,5.722
718.00,5.85
718.20,5.806
718.40,5.864
718.60,5.822
718.80,5.804
719.00,5.814
719.20,5.856
719.40,5.836
719.60,5.84
719.80,5.836
720.00,5.834
720.20,5.814
720.40,5.812
720.60,5.822
720.80,5.834
721.00,5.856
721.20,5.84
721.40,5.782
721.60,5.834
721.80,5.856
722.00,5.844
722.20,5.81
722.40,5.812
722.60,5.848
722.80,5.81
723.00,5.87
723.20,5.848
723.40,5.8
723.60,5.832
723.80,5.832
724.00,5.826
724.20,5.822
724.40,5.84
724.60,5.848
724.80,5.828
725.00,5.796
725.20,5.798
725.40,5.844
725.60,5.842
725.80,5.826
726.00,5.848
726.20,5.814
726.40,5.814
726.60,5.828
726.80,5.828
727.00,5.88
727.20,5.784
727.40,5.842
727.60,5.822
727.80,5.856
728.00,5.854
728.20,5.806
728.40,5.85
728.60,5.862
728.80,5.788
729.00,5.866
729.20,5.788
729.40,5.888
729.60,5.8
729.80,5.886
730.00,5.798
730.20,5.854
730.40,5.822
730.60,5.858
730.80,5.87
731.00,5.798
731.20,5.812
731.40,5.886
731.60,5.806
731.80,5.84
732.00,5.81
732.20,5.82
732.40,5.858
732.60,5.84
732.80,5.866
733.00,5.81
733.20,5.85
733.40,5.826
733.60,5.832
733.80,5.834
734.00,5.81
734.20,5.826
734.40,5.82
734.60,5.826
734.80,5.842
735.00,5.818
735.20,5.826
735.40,5.85
735.60,5.91
735.80,5.724
736.00,5.894
736.20,5.812
736.40,5.804
736.60,5.854
736.80,5.848
737.00,5.82
737.20,5.828
737.40,5.822
737.60,5.862
737.80,5.812
738.00,5.812
738.20,5.862
738.40,5.788
738.60,5.85
738.80,5.834
739.00,5.826
739.20,5.796
739.40,5.85
739.60,5.804
739.80,5.822
740.00,5.84
740.20,5.806
740.40,5.82
740.60,5.826
740.80,5.832
741.00,5.854
741.20,5.832
741.40,5.826
741.60,5.85
741.80,5.792
742.00,5.844
742.20,5.862
742.40,5.762
742.60,5.834
742.80,5.828
743.00,5.826
743.20,5.858
743.40,5.84
743.60,5.834
743.80,5.858
744.00,5.776
744.20,5.812
744.40,5.822
744.60,5.842
744.80,5.85
745.00,5.862
745.20,5.804
745.40,5.82
745.60,5.826
745.80,5.82
746.00,5.85
746.20,5.842
746.40,5.832
746.60,5.812
746.80,5.842
747.00,5.8
747.20,5.892
747.40,5.832
747.60,5.818
747.80,5.828
748.00,5.832
748.20,5.798
748.40,5.834
748.60,5.84
748.80,5.876
749.00,5.812
749.20,5.826
749.40,5.814
749.60,5.87
749.80,5.842
750.00,5.792
750.20,5.818
750.40,5.84
750.60,5.826
750.80,5.848
751.00,5.854
751.20,5.822
751.40,5.8
751.60,5.85
751.80,5.822
752.00,5.834
752.20,5.854
752.40,5.818
752.60,5.796
752.80,5.84
753.00,5.818
753.20,5.842
753.40,5.84
753.60,5.958
753.80,5.712
754.00,5.876
754.20,5.782
754.40,5.844
754.60,5.814
754.80,5.832
755.00,5.856
755.20,5.81
755.40,5.862
755.60,5.854
755.80,5.818
756.00,5.804
756.20,5.792
756.40,5.862
756.60,5.87
756.80,5.814
757.00,5.82
757.20,5.836
757.40,5.826
757.60,5.828
757.80,5.88
758.00,5.8
758.20,5.828
758.40,5.832
758.60,5.84
758.80,5.814
759.00,5.844
759.20,5.818
759.40,5.826
759.60,5.826
759.80,5.85
760.00,5.822
760.20,5.804
760.40,5.886
760.60,5.832
760.80,5.858
761.00,5.832
761.20,5.864
761.40,5.822
761.60,5.842
761.80,5.76
762.00,5.792
762.20,5.87
762.40,5.866
762.60,5.82
762.80,5.804
763.00,5.828
763.20,5.906
763.40,5.842
763.60,5.806
763.80,5.822
764.00,5.806
764.20,5.798
764.40,5.884
764.60,5.848
764.80,5.848
765.00,5.818
765.20,5.856
765.40,5.818
765.60,5.848
765.80,5.822
766.00,5.818
766.20,5.806
766.40,5.864
766.60,5.848
766.80,5.832
767.00,5.806
767.20,5.828
767.40,5.87
767.60,5.842
767.80,5.792
768.00,5.878
768.20,5.778
768.40,5.854
768.60,5.878
768.80,5.822
769.00,5.82
769.20,5.812
769.40,5.828
769.60,5.858
769.80,5.822
770.00,5.84
770.20,5.828
770.40,5.8
770.60,5.828
770.80,5.856
771.00,5.834
771.20,5.834
771.40,5.842
771.60,5.9
771.80,5.664
772.00,5.878
772.20,5.844
772.40,5.828
772.60,5.814
772.80,5.814
773.00,5.806
773.20,5.886
773.40,5.836
773.60,5.818
773.80,5.844
774.00,5.84
774.20,5.818
774.40,5.864
774.60,5.826
774.80,5.82
775.00,5.81
775.20,5.862
775.40,5.854
775.60,5.848
775.80,5.854
776.00,5.864
776.20,5.804
776.40,5.826
776.60,5.856
776.80,5.826
777.00,5.818
777.20,5.796
777.40,5.826
777.60,5.85
777.80,5.864
778.00,5.834
778.20,5.798
778.40,5.82
778.60,5.832
778.80,5.886
779.00,5.8
779.20,5.782
779.40,5.836
779.60,5.828
779.80,5.872
780.00,5.842
780.20,5.82
780.40,5.828
780.60,5.856
780.80,5.84
781.00,5.842
781.20,5.76
781.40,5.854
781.60,5.866
781.80,5.842
782.00,5.826
782.20,5.842
782.40,5.806
782.60,5.804
782.80,5.85
783.00,5.8
783.20,5.836
783.40,5.894
783.60,5.826
783.80,5.836
784.00,5.81
784.20,5.862
784.40,5.884
784.60,5.81
784.80,5.804
785.00,5.798
785.20,5.834
785.40,5.84
785.60,5.8
785.80,5.81
786.00,5.892
786.20,5.826
786.40,5.836
786.60,5.866
786.80,5.81
787.00,5.782
787.20,5.826
787.40,5.844
787.60,5.878
787.80,5.854
788.00,5.804
788.20,5.842
788.40,5.806
788.60,5.84
788.80,5.832
789.00,5.85
789.20,5.806
789.40,5.82
789.60,5.92
789.80,5.746
790.00,5.828
790.20,5.872
790.40,5.834
790.60,5.82
790.80,5.836
791.00,5.822
791.20,5.862
791.40,5.796
791.60,5.836
791.80,5.844
792.00,5.842
792.20,5.82
792.40,5.844
792.60,5.836
792.80,5.854
793.00,5.856
793.20,5.804
793.40,5.832
793.60,5.832
793.80,5.856
794.00,5.81
794.20,5.832
794.40,5.862
794.60,5.792
794.80,5.832
795.00,5.804
795.20,5.898
795.40,5.832
795.60,5.798
795.80,5.826
796.00,5.836
796.20,5.844
796.40,5.842
796.60,5.84
796.80,5.832
797.00,5.832
797.20,5.862
797.40,5.834
797.60,5.854
797.80,5.862
798.00,5.784
798.20,5.854
798.40,5.87
798.60,5.796
798.80,5.888
799.00,5.826
799.20,5.862
799.40,5.84
799.60,5.798
799.80,5.798
800.00,5.848
800.20,5.832
800.40,5.844
800.60,5.858
800.80,5.854
801.00,5.828
801.20,5.796
801.40,5.878
801.60,5.828
801.80,5.842
802.00,5.826
802.20,5.804
802.40,5.826
802.60,5.834
802.80,5.842
803.00,5.856
803.20,5.844
803.40,5.79
803.60,5.858
803.80,5.862
804.00,5.834
804.20,5.804
804.40,5.842
804.60,5.834
804.80,5.828
805.00,5.814
805.20,5.818
805.40,5.856
805.60,5.814
805.80,5.862
806.00,5.864
806.20,5.828
806.40,5.862
806.60,5.778
806.80,5.85
807.00,5.854
807.20,5.862
807.40,5.792
807.60,5.884
807.80,5.754
808.00,5.818
808.20,5.844
808.40,5.812
808.60,5.84
808.80,5.898
809.00,5.782
809.20,5.832
809.40,5.866
809.60,5.832
809.80,5.812
810.00,5.8
810.20,5.822
810.40,5.88
810.60,5.826
810.80,5.832
811.00,5.814
811.20,5.836
811.40,5.8
811.60,5.858
811.80,5.872
812.00,5.82
812.20,5.81
812.40,5.818
812.60,5.884
812.80,5.812
813.00,5.828
813.20,5.842
813.40,5.844
813.60,5.826
813.80,5.832
814.00,5.848
814.20,5.848
814.40,5.814
814.60,5.832
814.80,5.858
815.00,5.814
815.20,5.856
815.40,5.812
815.60,5.862
815.80,5.844
816.00,5.842
816.20,5.8
816.40,5.814
816.60,5.834
816.80,5.854
817.00,5.85
817.20,5.818
817.40,5.876
817.60,5.8
817.80,5.818
818.00,5.854
818.20,5.872
818.40,5.796
818.60,5.82
818.80,5.798
819.00,5.834
819.20,5.876
819.40,5.81
819.60,5.832
819.80,5.848
820.00,5.818
820.20,5.834
820.40,5.796
820.60,5.848
820.80,5.814
821.00,5.862
821.20,5.832
821.40,5.864
821.60,5.858
821.80,5.79
822.00,5.822
822.20,5.778
822.40,5.884
822.60,5.828
822.80,5.826
823.00,5.84
823.20,5.826
823.40,5.818
823.60,5.84
823.80,5.814
824.00,5.79
824.20,5.862
824.40,5.858
824.60,5.82
824.80,5.85
825.00,5.814
825.20,5.818
825.40,5.832
825.60,5.946
825.80,5.726
826.00,5.798
826.20,5.812
826.40,5.834
826.60,5.844
826.80,5.806
827.00,5.828
827.20,5.804
827.40,5.82
827.60,5.84
827.80,5.84
828.00,5.82
828.20,5.842
828.40,5.814
828.60,5.832
828.80,5.822
829.00,5.864
829.20,5.818
829.40,5.8
829.60,5.79
829.80,5.864
830.00,5.87
830.20,5.828
830.40,5.818
830.60,5.878
830.80,5.826
831.00,5.818
831.20,5.818
831.40,5.818
831.60,5.832
831.80,5.858
832.00,5.828
832.20,5.864
832.40,5.848
832.60,5.84
832.80,5.85
833.00,5.84
833.20,5.826
833.40,5.814
833.60,5.84
833.80,5.842
834.00,5.82
834.20,5.798
834.40,5.818
834.60,5.88
834.80,5.814
835.00,5.842
835.20,5.866
835.40,5.832
835.60,5.84
835.80,5.826
836.00,5.806
836.20,5.848
836.40,5.858
836.60,5.82
836.80,5.826
837.00,5.822
837.20,5.82
837.40,5.792
837.60,5.898
837.80,5.784
838.00,5.866
838.20,5.826
838.40,5.826
838.60,5.814
838.80,5.844
839.00,5.804
839.20,5.844
839.40,5.828
839.60,5.842
839.80,5.848
840.00,5.812
840.20,5.826
840.40,5.848
840.60,5.806
840.80,5.898
841.00,5.822
841.20,5.84
841.40,5.81
841.60,5.828
841.80,5.834
842.00,5.858
842.20,5.812
842.40,5.85
842.60,5.792
842.80,5.85
843.00,5.806
843.20,5.818
843.40,5.864
843.60,5.928
843.80,5.782
844.00,5.862
844.20,5.796
844.40,5.82
844.60,5.8
844.80,5.832
845.00,5.84
845.20,5.836
845.40,5.864
845.60,5.804
845.80,5.836
846.00,5.796
846.20,5.848
846.40,5.826
846.60,5.84
846.80,5.8
847.00,5.834
847.20,5.848
847.40,5.82
847.60,5.822
847.80,5.856
848.00,5.84
848.20,5.876
848.40,5.826
848.60,5.826
848.80,5.836
849.00,5.812
849.20,5.844
849.40,5.87
849.60,5.864
849.80,5.826
850.00,5.82
850.20,5.854
850.40,5.854
850.60,5.826
850.80,5.818
851.00,5.862
851.20,5.81
851.40,5.848
851.60,5.828
851.80,5.85
852.00,5.844
852.20,5.804
852.40,5.812
852.60,5.85
852.80,5.842
853.00,5.858
853.20,5.804
853.40,5.84
853.60,5.81
853.80,5.804
854.00,5.812
854.20,5.842
854.40,5.856
854.60,5.85
854.80,5.85
855.00,5.814
855.20,5.804
855.40,5.814
855.60,5.84
855.80,5.856
856.00,5.844
856.20,5.79
856.40,5.828
856.60,5.872
856.80,5.832
857.00,5.796
857.20,5.812
857.40,5.832
857.60,5.848
857.80,5.82
858.00,5.826
858.20,5.84
858.40,5.812
858.60,5.85
858.80,5.84
859.00,5.828
859.20,5.872
859.40,5.866
859.60,5.812
859.80,5.85
860.00,5.826
860.20,5.834
860.40,5.842
860.60,5.834
860.80,5.826
861.00,5.8
861.20,5.85
861.40,5.832
861.60,5.914
861.80,5.776
862.00,5.844
862.20,5.848
862.40,5.854
862.60,5.782
862.80,5.822
863.00,5.804
863.20,5.872
863.40,5.784
863.60,5.842
863.80,5.854
864.00,5.836
864.20,5.842
864.40,5.84
864.60,5.844
864.80,5.804
865.00,5.814
865.20,5.854
865.40,5.828
865.60,5.842
865.80,5.822
866.00,5.842
866.20,5.848
866.40,5.856
866.60,5.84
866.80,5.858
867.00,5.8
867.20,5.812
867.40,5.848
867.60,5.836
867.80,5.84
868.00,5.826
868.20,5.828
868.40,5.826
868.60,5.862
868.80,5.822
869.00,5.842
869.20,5.844
869.40,5.87
869.60,5.77
869.80,5.826
870.00,5.842
870.20,5.792
870.40,5.856
870.60,5.814
870.80,5.822
871.00,5.842
871.20,5.832
871.40,5.818
871.60,5.834
871.80,5.832
872.00,5.822
872.20,5.812
872.40,5.864
872.60,5.836
872.80,5.828
873.00,5.792
873.20,5.856
873.40,5.776
873.60,5.822
873.80,5.822
874.00,5.826
874.20,5.834
874.40,5.85
874.60,5.842
874.80,5.792
875.00,5.858
875.20,5.832
875.40,5.822
875.60,5.822
875.80,5.84
876.00,5.812
876.20,5.84
876.40,5.848
876.60,5.844
876.80,5.826
877.00,5.806
877.20,5.85
877.40,5.848
877.60,5.85
877.80,5.826
878.00,5.842
878.20,5.822
878.40,5.826
878.60,5.84
878.80,5.842
879.00,5.836
879.20,5.818
879.40,5.822
879.60,5.958
879.80,5.734
880.00,5.812
880.20,5.842
880.40,5.828
880.60,5.84
880.80,5.876
881.00,5.834
881.20,5.784
881.40,5.844
881.60,5.8
881.80,5.862
882.00,5.834
882.20,5.84
882.40,5.884
882.60,5.82
882.80,5.784
883.00,5.844
883.20,5.878
883.40,5.862
883.60,5.848
883.80,5.836
884.00,5.826
884.20,5.842
884.40,5.842
884.60,5.806
884.80,5.844
885.00,5.796
885.20,5.892
885.40,5.812
885.60,5.832
885.80,5.826
886.00,5.826
886.20,5.818
886.40,5.864
886.60,5.856
886.80,5.788
887.00,5.85
887.20,5.836
887.40,5.908
887.60,5.814
887.80,5.854
888.00,5.854
888.20,5.81
888.40,5.836
888.60,5.842
888.80,5.812
889.00,5.81
889.20,5.826
889.40,5.878
889.60,5.832
889.80,5.826
890.00,5.828
890.20,5.826
890.40,5.826
890.60,5.878
890.80,5.826
891.00,5.806
891.20,5.804
891.60,5.804
891.80,5.812
892.00,5.872
892.20,5.784
892.40,5.85
892.60,5.85
892.80,5.83
893.00,5.878
893.20,5.82
893.40,5.794
893.60,5.83
893.80,5.848
894.00,5.826
894.20,5.858
894.40,5.838
894.60,5.808
894.80,5.922
895.00,5.746
895.20,5.872
895.40,5.794
895.60,5.88
895.80,5.812
896.00,5.812
896.20,5.83
896.40,5.872
896.60,5.79
896.80,5.822
897.00,5.844
897.20,5.826
897.40,5.804
897.60,5.806
897.80,5.888
898.00,5.882
898.20,5.836
898.40,5.826
898.60,5.85
898.80,5.85
899.00,5.878
899.20,5.806
899.40,5.86
899.60,5.842
899.80,5.83
900.00,5.844
900.20,5.834
900.40,5.8
900.60,5.842
900.80,5.828
901.00,5.776
901.20,5.848
901.40,5.842
901.60,5.784
901.80,5.874
902.00,5.864
902.20,5.856
902.40,5.852
902.60,5.822
902.80,5.828
903.00,5.816
903.20,5.85
903.40,5.838
903.60,5.848
903.80,5.826
904.00,5.806
904.20,5.842
904.40,5.856
904.60,5.83
904.80,5.826
905.00,5.792
905.20,5.83
905.40,5.83
905.60,5.85
905.80,5.864
906.00,5.768
906.20,5.852
906.40,5.808
906.60,5.858
906.80,5.826
907.00,5.804
907.20,5.826
907.40,5.864
907.60,5.858
907.80,5.814
908.00,5.746
908.20,5.856
908.40,5.836
908.60,5.86
908.80,5.83
909.00,5.85
909.20,5.836
909.40,5.838
909.60,5.844
909.80,5.808
910.00,5.822
910.20,5.83
910.40,5.842
910.60,5.822
910.80,5.864
911.00,5.764
911.20,5.866
911.40,5.828
911.60,5.822
911.80,5.842
912.00,5.836
912.20,5.842
912.40,5.806
912.60,5.844
912.80,5.93
913.00,5.75
913.20,5.834
913.40,5.82
913.60,5.814
913.80,5.874
914.00,5.83
914.20,5.85
914.40,5.85
914.60,5.87
914.80,5.814
915.00,5.848
915.20,5.83
915.40,5.864
915.60,5.814
915.80,5.838
916.00,5.808
916.20,5.852
916.40,5.896
916.60,5.836
916.80,5.812
917.00,5.8
917.20,5.848
917.40,5.842
917.60,5.798
917.80,5.828
918.00,5.828
918.20,5.874
918.40,5.826
918.60,5.82
918.80,5.822
919.00,5.86
919.20,5.836
919.40,5.816
919.60,5.886
919.80,5.828
920.00,5.798
920.20,5.856
920.40,5.86
920.60,5.806
920.80,5.848
921.00,5.83
921.20,5.784
921.40,5.88
921.60,5.816
921.80,5.814
922.00,5.814
922.20,5.86
922.40,5.812
922.60,5.782
922.80,5.828
923.00,5.826
923.20,5.85
923.40,5.842
923.60,5.828
923.80,5.826
924.00,5.848
924.20,5.852
924.40,5.816
924.60,5.822
924.80,5.828
925.00,5.834
925.20,5.822
925.40,5.83
925.60,5.842
925.80,5.828
926.00,5.826
926.20,5.844
926.40,5.822
926.60,5.814
926.80,5.894
927.00,5.806
927.20,5.826
927.40,5.848
927.60,5.814
927.80,5.806
928.00,5.874
928.20,5.848
928.40,5.798
928.60,5.858
928.80,5.82
929.00,5.808
929.20,5.826
929.40,5.806
929.60,5.858
929.80,5.852
930.00,5.814
930.20,5.816
930.40,5.852
930.60,5.798
930.80,5.9
931.00,5.804
931.20,5.822
931.40,5.838
931.60,5.8
931.80,5.852
932.00,5.87
932.20,5.842
932.40,5.814
932.60,5.852
932.80,5.844
933.00,5.816
933.20,5.87
933.40,5.848
933.60,5.808
933.80,5.82
934.00,5.848
934.20,5.834
934.40,5.83
934.60,5.874
934.80,5.83
935.00,5.834
935.20,5.812
935.40,5.866
935.60,5.836
935.80,5.812
936.00,5.834
936.20,5.816
936.40,5.87
936.60,5.792
936.80,5.85
937.00,5.866
937.20,5.834
937.40,5.794
937.60,5.828
937.80,5.806
938.00,5.798
938.20,5.88
938.40,5.822
938.60,5.836
938.80,5.88
939.00,5.782
939.20,5.87
939.40,5.8
939.60,5.828
939.80,5.858
940.00,5.838
940.20,5.842
940.40,5.828
940.60,5.814
940.80,5.836
941.00,5.848
941.20,5.864
941.40,5.8
941.60,5.842
941.80,5.812
942.00,5.826
942.20,5.836
942.40,5.852
942.60,5.852
942.80,5.872
943.00,5.784
943.20,5.816
943.40,5.83
943.60,5.86
943.80,5.828
944.00,5.856
944.20,5.816
944.40,5.82
944.60,5.836
944.80,5.812
945.00,5.848
945.20,5.858
945.40,5.828
945.60,5.782
945.80,5.87
946.00,5.86
946.20,5.816
946.40,5.812
946.60,5.864
946.80,5.872
947.00,5.798
947.20,5.812
947.40,5.826
947.60,5.886
947.80,5.826
948.00,5.86
948.20,5.866
948.40,5.822
948.60,5.828
948.80,5.918
949.00,5.716
949.20,5.888
949.40,5.85
949.60,5.816
949.80,5.864
950.00,5.844
950.20,5.808
950.40,5.784
950.60,5.882
950.80,5.85
951.00,5.826
951.20,5.83
951.40,5.856
951.60,5.834
951.80,5.814
952.00,5.816
952.20,5.85
952.40,5.808
952.60,5.888
952.80,5.792
953.00,5.838
953.20,5.9
953.40,5.814
953.60,5.8
953.80,5.786
954.00,5.878
954.20,5.814
954.40,5.826
954.60,5.848
954.80,5.834
955.00,5.822
955.20,5.874
955.40,5.806
955.60,5.812
955.80,5.826
956.00,5.828
956.20,5.816
956.40,5.834
956.60,5.86
956.80,5.834
957.00,5.806
957.20,5.886
957.40,5.816
957.60,5.816
957.80,5.87
958.00,5.826
958.20,5.826
958.40,5.804
958.60,5.842
958.80,5.872
959.00,5.836
959.20,5.836
959.40,5.848
959.60,5.826
959.80,5.812
960.00,5.826
960.20,5.784
960.40,5.814
960.60,5.844
960.80,5.866
961.00,5.858
961.20,5.82
961.40,5.856
961.60,5.844
961.80,5.828
962.00,5.804
962.20,5.848
962.40,5.82
962.60,5.86
962.80,5.838
963.00,5.83
963.20,5.8
963.40,5.844
963.60,5.866
963.80,5.838
964.00,5.852
964.20,5.826
964.40,5.826
964.60,5.866
964.80,5.848
965.00,5.842
965.20,5.848
965.40,5.8
965.60,5.782
965.80,5.852
966.00,5.842
966.20,5.842
966.40,5.808
966.60,5.86
966.80,5.9
967.00,5.814
967.20,5.776
967.40,5.874
967.60,5.812
967.80,5.86
968.00,5.798
968.20,5.858
968.40,5.814
968.60,5.808
968.80,5.83
969.00,5.822
969.20,5.882
969.40,5.826
969.60,5.83
969.80,5.804
970.00,5.816
970.20,5.87
970.40,5.85
970.60,5.848
970.80,5.83
971.00,5.848
971.20,5.822
971.40,5.822
971.60,5.816
971.80,5.826
972.00,5.858
972.20,5.816
972.40,5.786
972.60,5.8
972.80,5.9
973.00,5.864
973.20,5.816
973.40,5.82
973.60,5.8
973.80,5.822
974.00,5.858
974.20,5.808
974.40,5.834
974.60,5.828
974.80,5.834
975.00,5.82
975.20,5.83
975.40,5.83
975.60,5.826
975.80,5.836
976.00,5.83
976.20,5.844
976.40,5.88
976.60,5.814
976.80,5.842
977.00,5.836
977.20,5.8
977.40,5.822
977.60,5.856
977.80,5.86
978.00,5.858
978.20,5.77
978.40,5.848
978.60,5.83
978.80,5.816
979.00,5.834
979.20,5.852
979.40,5.798
979.60,5.856
979.80,5.858
980.00,5.872
980.20,5.782
980.40,5.816
980.60,5.866
980.80,5.85
981.00,5.82
981.20,5.874
981.40,5.83
981.60,5.858
981.80,5.822
982.00,5.812
982.20,5.83
982.40,5.814
982.60,5.844
982.80,5.844
983.00,5.842
983.20,5.86
983.40,5.792
983.60,5.836
983.80,5.826
984.00,5.83
984.20,5.826
984.40,5.838
984.60,5.87
984.80,5.938
985.00,5.738
985.20,5.806
985.40,5.814
985.60,5.864
985.80,5.858
986.00,5.848
986.20,5.836
986.40,5.808
986.60,5.858
986.80,5.814
987.00,5.812
987.20,5.806
987.40,5.792
987.60,5.858
987.80,5.798
988.00,5.836
988.20,5.858
988.40,5.83
988.60,5.826
988.80,5.808
989.00,5.826
989.20,5.792
989.40,5.878
989.60,5.812
989.80,5.86
990.00,5.808
990.20,5.82
990.40,5.844
990.60,5.816
990.80,5.848
991.00,5.828
991.20,5.804
991.40,5.864
991.60,5.842
991.80,5.896
992.00,5.778
992.20,5.864
992.40,5.826
992.60,5.816
992.80,5.85
993.00,5.836
993.20,5.814
993.40,5.836
993.60,5.856
993.80,5.828
994.00,5.822
994.20,5.826
994.40,5.838
994.60,5.82
994.80,5.886
995.00,5.822
995.20,5.77
995.40,5.79
995.60,5.812
995.80,5.87
996.00,5.814
996.20,5.842
996.40,5.842
996.60,5.82
996.80,5.848
997.00,5.836
997.20,5.85
997.40,5.804
997.60,5.838
997.80,5.842
998.00,5.852
998.20,5.83
998.40,5.878
998.60,5.816
998.80,5.85
999.00,5.806
999.20,5.85
999.40,5.82
999.60,5.866
999.80,5.83
1000.00,5.782
1000.20,5.85
1000.40,5.82
1000.60,5.87
1000.80,5.87
1001.00,5.826
1001.20,5.826
1001.40,5.844
1001.60,5.886
1001.80,5.808
1002.00,5.812
1002.20,5.842
1002.40,5.872
1002.60,5.806
1002.80,5.918
1003.00,5.762
1003.20,5.87
1003.40,5.834
1003.60,5.822
1003.80,5.838
1004.00,5.786
1004.20,5.816
1004.40,5.878
1004.60,5.826
1004.80,5.86
1005.00,5.844
1005.20,5.816
1005.40,5.812
1005.60,5.864
1005.80,5.826
1006.00,5.83
1006.20,5.814
1006.40,5.834
1006.60,5.828
1006.80,5.814
1007.00,5.838
1007.20,5.892
1007.40,5.794
1007.60,5.848
1007.80,5.86
1008.00,5.828
1008.20,5.834
1008.40,5.828
1008.60,5.808
1008.80,5.82
1009.00,5.804
1009.20,5.85
1009.40,5.86
1009.60,5.834
1009.80,5.822
1010.00,5.842
1010.20,5.812
1010.40,5.838
1010.60,5.82
1010.80,5.852
1011.00,5.82
1011.20,5.842
1011.40,5.804
1011.60,5.786
1011.80,5.886
1012.00,5.826
1012.20,5.814
1012.40,5.828
1012.60,5.848
1012.80,5.836
1013.00,5.808
1013.20,5.816
1013.40,5.858
1013.60,5.878
1013.80,5.782
1014.00,5.816
1014.20,5.858
1014.40,5.836
1014.60,5.86
1014.80,5.816
1015.00,5.844
1015.20,5.848
1015.40,5.828
1015.60,5.834
1015.80,5.836
1016.00,5.816
1016.20,5.852
1016.40,5.804
1016.60,5.856
1016.80,5.85
1017.00,5.792
1017.20,5.804
1017.40,5.86
1017.60,5.822
1017.80,5.816
1018.00,5.85
1018.20,5.842
1018.40,5.812
1018.60,5.82
1018.80,5.85
1019.00,5.842
1019.20,5.822
1019.40,5.87
1019.60,5.834
1019.80,5.826
1020.00,5.804
1020.20,5.828
1020.40,5.852
1020.60,5.872
1020.80,5.892
1021.00,5.72
1021.20,5.808
1021.40,5.826
1021.60,5.826
1021.80,5.814
1022.00,5.866
1022.20,5.852
1022.40,5.86
1022.60,5.782
1022.80,5.83
1023.00,5.83
1023.20,5.848
1023.40,5.826
1023.60,5.782
1023.80,5.844
1024.00,5.83
1024.20,5.848
1024.40,5.826
1024.60,5.826
1024.80,5.804
1025.00,5.85
1025.20,5.848
1025.40,5.834
1025.60,5.852
1025.80,5.83
1026.00,5.792
1026.20,5.792
1026.40,5.808
1026.60,5.814
1026.80,5.866
1027.00,5.864
1027.20,5.79
1027.40,5.852
1027.60,5.866
1027.80,5.83
1028.00,5.866
1028.20,5.808
1028.40,5.838
1028.60,5.822
1028.80,5.826
1029.00,5.786
1029.20,5.874
1029.40,5.826
1029.60,5.844
1029.80,5.814
1030.00,5.85
1030.20,5.816
1030.40,5.814
1030.60,5.842
1030.80,5.806
1031.00,5.866
1031.20,5.856
1031.40,5.836
1031.60,5.83
1031.80,5.782
1032.00,5.856
1032.20,5.836
1032.40,5.834
1032.60,5.88
1032.80,5.804
1033.00,5.792
1033.20,5.856
1033.40,5.83
1033.60,5.836
1033.80,5.86
1034.00,5.812
1034.20,5.822
1034.40,5.856
1034.60,5.828
1034.80,5.888
1035.00,5.844
1035.20,5.79
1035.40,5.842
1035.60,5.812
1035.80,5.848
1036.00,5.826
1036.20,5.838
1036.40,5.8
1036.60,5.858
1036.80,5.872
1037.00,5.814
1037.20,5.858
1037.40,5.826
1037.60,5.782
1037.80,5.814
1038.00,5.878
1038.20,5.798
1038.40,5.804
1038.60,5.882
1038.80,5.94
1039.00,5.702
1039.20,5.812
1039.40,5.826
1039.60,5.838
1039.80,5.806
1040.00,5.894
1040.20,5.8
1040.40,5.85
1040.60,5.826
1040.80,5.804
1041.00,5.848
1041.20,5.838
1041.40,5.828
1041.60,5.836
1041.80,5.838
1042.00,5.8
1042.20,5.856
1042.40,5.834
1042.60,5.798
1042.80,5.874
1043.00,5.844
1043.20,5.82
1043.40,5.808
1043.60,5.834
1043.80,5.834
1044.00,5.816
1044.20,5.806
1044.40,5.852
1044.60,5.85
1044.80,5.812
1045.00,5.786
1045.20,5.878
1045.40,5.838
1045.60,5.848
1045.80,5.834
1046.00,5.844
1046.20,5.77
1046.40,5.872
1046.60,5.828
1046.80,5.848
1047.00,5.838
1047.20,5.848
1047.40,5.826
1047.60,5.856
1047.80,5.838
1048.00,5.826
1048.20,5.83
1048.40,5.822
1048.60,5.834
1048.80,5.834
1049.00,5.848
1049.20,5.826
1049.40,5.838
1049.60,5.826
1049.80,5.856
1050.00,5.8
1050.20,5.874
1050.40,5.826
1050.60,5.834
1050.80,5.804
1051.00,5.828
1051.20,5.866
1051.40,5.816
1051.60,5.836
1051.80,5.83
1052.00,5.838
1052.20,5.87
1052.40,5.798
1052.60,5.798
1052.80,5.858
1053.00,5.878
1053.20,5.844
1053.40,5.792
1053.60,5.828
1053.80,5.804
1054.00,5.866
1054.20,5.838
1054.40,5.804
1054.60,5.826
1054.80,5.826
1055.00,5.848
1055.20,5.838
1055.40,5.838
1055.60,5.842
1055.80,5.82
1056.00,5.794
1056.20,5.848
1056.40,5.83
1056.60,5.822
1056.80,5.958
1057.00,5.716
1057.20,5.826
1057.40,5.842
1057.60,5.83
1057.80,5.842
1058.00,5.842
1058.20,5.792
1058.40,5.834
1058.60,5.808
1058.80,5.814
1059.00,5.878
1059.20,5.852
1059.40,5.844
1059.60,5.828
1059.80,5.82
1060.00,5.784
1060.20,5.838
1060.40,5.842
1060.60,5.828
1060.80,5.826
1061.00,5.83
1061.20,5.844
1061.40,5.836
1061.60,5.85
1061.80,5.804
1062.00,5.816
1062.20,5.804
1062.40,5.894
1062.60,5.844
1062.80,5.85
1063.00,5.85
1063.20,5.812
1063.40,5.85
1063.60,5.782
1063.80,5.864
1064.00,5.85
1064.20,5.848
1064.40,5.82
1064.60,5.86
1064.80,5.834
1065.00,5.808
1065.20,5.842
1065.40,5.844
1065.60,5.804
1065.80,5.848
1066.00,5.826
1066.20,5.87
1066.40,5.826
1066.60,5.826
1066.80,5.844
1067.00,5.83
1067.20,5.82
1067.40,5.834
1067.60,5.842
1067.80,5.856
1068.00,5.858
1068.20,5.838
1068.40,5.828
1068.60,5.852
1068.80,5.814
1069.00,5.82
1069.20,5.87
1069.40,5.838
1069.60,5.808
1069.80,5.804
1070.00,5.874
1070.20,5.86
1070.40,5.842
1070.60,5.806
1070.80,5.83
1071.00,5.8
1071.20,5.858
1071.40,5.864
1071.60,5.798
1071.80,5.808
1072.00,5.814
1072.20,5.864
1072.40,5.798
1072.60,5.856
1072.80,5.836
1073.00,5.826
1073.20,5.836
1073.40,5.886
1073.60,5.8
1073.80,5.808
1074.00,5.852
1074.20,5.842
1074.40,5.826
1074.60,5.816
1074.80,5.93
1075.00,5.77
1075.20,5.794
1075.40,5.834
1075.60,5.814
1075.80,5.852
1076.00,5.83
1076.20,5.858
1076.40,5.856
1076.60,5.82
1076.80,5.838
1077.00,5.842
1077.20,5.828
1077.40,5.816
1077.60,5.842
1077.80,5.814
1078.00,5.814
1078.20,5.856
1078.40,5.834
1078.60,5.816
1078.80,5.804
1079.00,5.848
1079.20,5.886
1079.40,5.838
1079.60,5.836
1079.80,5.842
1080.00,5.826
1080.20,5.838
1080.40,5.83
1080.60,5.822
1080.80,5.83
1081.00,5.852
1081.20,5.844
1081.40,5.856
1081.60,5.864
1081.80,5.864
1082.00,5.826
1082.20,5.782
1082.40,5.816
1082.60,5.83
1082.80,5.852
1083.00,5.852
1083.20,5.808
1083.40,5.826
1083.60,5.842
1083.80,5.83
1084.00,5.83
1084.20,5.842
1084.40,5.82
1084.60,5.866
1084.80,5.836
1085.00,5.82
1085.20,5.83
1085.40,5.798
1085.60,5.814
1085.80,5.87
1086.00,5.838
1086.20,5.806
1086.40,5.856
1086.60,5.792
1086.80,5.844
1087.00,5.812
1087.20,5.848
1087.40,5.812
1087.60,5.856
1087.80,5.83
1088.00,5.794
1088.20,5.864
1088.40,5.842
1088.60,5.772
1088.80,5.894
1089.00,5.838
1089.20,5.812
1089.40,5.786
1089.60,5.82
1089.80,5.83
1090.00,5.836
1090.20,5.834
1090.40,5.8
1090.60,5.82
1090.80,5.812
1091.00,5.864
1091.20,5.834
1091.40,5.83
1091.60,5.866
1091.80,5.812
1092.00,5.812
1092.20,5.856
1092.40,5.804
1092.60,5.844
1092.80,5.958
1093.00,5.762
1093.20,5.822
1093.40,5.806
1093.60,5.842
1093.80,5.826
1094.00,5.85
1094.20,5.806
1094.40,5.87
1094.60,5.768
1094.80,5.848
1095.00,5.878
1095.20,5.842
1095.40,5.828
1095.60,5.836
1095.80,5.82
1096.00,5.858
1096.20,5.858
1096.40,5.82
1096.60,5.804
1096.80,5.844
1097.00,5.822
1097.20,5.812
1097.40,5.83
1097.60,5.856
1097.80,5.828
1098.00,5.872
1098.20,5.834
1098.40,5.856
1098.60,5.816
1098.80,5.804
1099.00,5.836
1099.20,5.86
1099.40,5.8
1099.60,5.834
1099.80,5.85
1100.00,5.844
1100.20,5.85
1100.40,5.79
1100.60,5.826
1100.80,5.814
1101.00,5.82
1101.20,5.88
1101.40,5.856
1101.60,5.866
1101.80,5.808
1102.00,5.786
1102.20,5.87
1102.40,5.828
1102.60,5.808
1102.80,5.848
1103.00,5.834
1103.20,5.826
1103.40,5.844
1103.60,5.9
1103.80,5.784
1104.00,5.816
1104.20,5.826
1104.40,5.86
1104.60,5.882
1104.80,5.858
1105.00,5.836
1105.20,5.806
1105.40,5.83
1105.60,5.842
1105.80,5.79
1106.00,5.772
1106.20,5.852
1106.40,5.838
1106.60,5.87
1106.80,5.834
1107.00,5.826
1107.20,5.806
1107.40,5.812
1107.60,5.834
1107.80,5.808
1108.00,5.808
1108.20,5.834
1108.40,5.874
1108.60,5.826
1108.80,5.816
1109.00,5.808
1109.20,5.874
1109.40,5.808
1109.60,5.856
1109.80,5.83
1110.00,5.778
1110.20,5.872
1110.40,5.834
1110.60,5.82
1110.80,5.946
1111.00,5.718
1111.20,5.838
1111.40,5.842
1111.60,5.836
1111.80,5.858
1112.00,5.806
1112.20,5.834
1112.40,5.874
1112.60,5.83
1112.80,5.82
1113.00,5.798
1113.20,5.82
1113.40,5.836
1113.60,5.842
1113.80,5.86
1114.00,5.794
1114.20,5.852
1114.40,5.864
1114.60,5.856
1114.80,5.838
1115.00,5.844
1115.20,5.814
1115.40,5.792
1115.60,5.806
1115.80,5.806
1116.00,5.882
1116.20,5.806
1116.40,5.844
1116.60,5.838
1116.80,5.872
1117.00,5.826
1117.20,5.782
1117.40,5.87
1117.60,5.808
1117.80,5.82
1118.00,5.86
1118.20,5.82
1118.40,5.838
1118.60,5.826
1118.80,5.808
1119.00,5.864
1119.20,5.858
1119.40,5.77
1119.60,5.86
1119.80,5.836
1120.00,5.866
1120.20,5.852
1120.40,5.82
1120.60,5.838
1120.80,5.816
1121.00,5.806
1121.20,5.812
1121.40,5.864
1121.60,5.814
1121.80,5.826
1122.00,5.9
1122.20,5.848
1122.40,5.77
1122.60,5.864
1122.80,5.798
1123.00,5.848
1123.20,5.858
1123.40,5.806
1123.60,5.844
1123.80,5.816
1124.00,5.828
1124.20,5.842
1124.40,5.842
1124.60,5.82
1124.80,5.808
1125.00,5.83
1125.20,5.822
1125.40,5.822
1125.60,5.822
1125.80,5.87
1126.00,5.842
1126.20,5.786
1126.40,5.872
1126.60,5.79
1126.80,5.798
1127.00,5.85
1127.20,5.842
1127.40,5.848
1127.60,5.838
1127.80,5.848
1128.00,5.814
1128.20,5.806
1128.40,5.848
1128.60,5.816
1128.80,5.91
1129.00,5.716
1129.20,5.814
1129.40,5.768
1129.60,5.892
1129.80,5.828
1130.00,5.86
1130.20,5.826
1130.40,5.856
1130.60,5.82
1130.80,5.822
1131.00,5.808
1131.20,5.886
1131.40,5.806
1131.60,5.822
1131.80,5.856
1132.00,5.844
1132.20,5.858
1132.40,5.804
1132.60,5.83
1132.80,5.838
1133.00,5.836
1133.20,5.848
1133.40,5.806
1133.60,5.806
1133.80,5.85
1134.00,5.828
1134.20,5.86
1134.40,5.776
1134.60,5.844
1134.80,5.834
1135.00,5.798
1135.20,5.842
1135.40,5.874
1135.60,5.838
1135.80,5.848
1136.00,5.798
1136.20,5.806
1136.40,5.886
1136.60,5.838
1136.80,5.83
1137.00,5.856
1137.20,5.858
1137.40,5.786
1137.60,5.804
1137.80,5.834
1138.00,5.844
1138.20,5.816
1138.40,5.86
1138.60,5.814
1138.80,5.83
1139.00,5.848
1139.20,5.816
1139.40,5.85
1139.60,5.806
1139.80,5.826
1140.00,5.834
1140.20,5.852
1140.40,5.814
1140.60,5.87
1140.80,5.794
1141.00,5.764
1141.20,5.806
1141.40,5.798
1141.60,5.844
1141.80,5.834
1142.00,5.82
1142.20,5.864
1142.40,5.86
1142.60,5.794
1142.80,5.836
1143.00,5.85
1143.20,5.828
1143.40,5.838
1143.60,5.866
1143.80,5.79
1144.00,5.874
1144.20,5.836
1144.40,5.844
1144.60,5.786
1144.80,5.838
1145.00,5.856
1145.20,5.826
1145.40,5.848
1145.60,5.834
1145.80,5.816
1146.00,5.86
1146.20,5.782
1146.40,5.838
1146.60,5.826
1146.80,5.91
1147.00,5.76
1147.20,5.85
1147.40,5.888
1147.60,5.838
1147.80,5.848
1148.00,5.812
1148.20,5.826
1148.40,5.836
1148.60,5.812
1148.80,5.826
1149.00,5.856
1149.20,5.826
1149.40,5.848
1149.60,5.828
1149.80,5.822
1150.00,5.828
1150.20,5.87
1150.40,5.872
1150.60,5.808
1150.80,5.8
1151.00,5.894
1151.20,5.812
1151.40,5.826
1151.60,5.848
1151.80,5.826
1152.00,5.79
1152.20,5.848
1152.40,5.816
1152.60,5.83
1152.80,5.852
1153.00,5.864
1153.20,5.834
1153.40,5.816
1153.60,5.826
1153.80,5.87
1154.00,5.834
1154.20,5.826
1154.40,5.816
1154.60,5.834
1154.80,5.812
1155.00,5.826
1155.20,5.798
1155.40,5.858
1155.60,5.848
1155.80,5.842
1156.00,5.782
1156.20,5.798
1156.40,5.842
1156.60,5.83
1156.80,5.826
1157.00,5.856
1157.20,5.85
1157.40,5.852
1157.60,5.814
1157.80,5.842
1158.00,5.816
1158.20,5.792
1158.40,5.812
1158.60,5.872
1158.80,5.838
1159.00,5.914
1159.20,5.798
1159.40,5.866
1159.60,5.812
1159.80,5.838
1160.00,5.83
1160.20,5.874
1160.40,5.79
1160.60,5.822
1160.80,5.814
1161.00,5.864
1161.20,5.826
1161.40,5.806
1161.60,5.864
1161.80,5.872
1162.00,5.848
1162.20,5.792
1162.40,5.85
1162.60,5.826
1162.80,5.848
1163.00,5.816
1163.20,5.826
1163.40,5.826
1163.60,5.852
1163.80,5.83
1164.00,5.826
1164.20,5.826
1164.40,5.838
1164.60,5.856
1164.80,5.932
1165.00,5.734
1165.20,5.828
1165.40,5.842
1165.60,5.834
1165.80,5.804
1166.00,5.86
1166.20,5.852
1166.40,5.82
1166.60,5.82
1166.80,5.858
1167.00,5.844
1167.20,5.842
1167.40,5.834
1167.60,5.866
1167.80,5.794
1168.00,5.83
1168.20,5.826
1168.40,5.834
1168.60,5.844
1168.80,5.804
1169.00,5.828
1169.20,5.828
1169.40,5.834
1169.60,5.828
1169.80,5.814
1170.00,5.882
1170.20,5.784
1170.40,5.814
1170.60,5.858
1170.80,5.87
1171.00,5.828
1171.20,5.82
1171.40,5.878
1171.60,5.842
1171.80,5.85
1172.00,5.852
1172.20,5.814
1172.40,5.762
1172.60,5.842
1172.80,5.842
1173.00,5.842
1173.20,5.814
1173.40,5.83
1173.60,5.838
1173.80,5.86
1174.00,5.82
1174.20,5.864
1174.40,5.816
1174.60,5.826
1174.80,5.83
1175.00,5.804
1175.20,5.842
1175.40,5.776
1175.60,5.838
1175.80,5.866
1176.00,5.77
1176.20,5.892
1176.40,5.798
1176.60,5.858
1176.80,5.828
1177.00,5.808
1177.20,5.82
1177.40,5.826
1177.60,5.864
1177.80,5.852
1178.00,5.816
1178.20,5.772
1178.40,5.842
1178.60,5.878
1178.80,5.808
1179.00,5.848
1179.20,5.814
1179.40,5.83
1179.60,5.844
1179.80,5.864
1180.00,5.826
1180.20,5.83
1180.40,5.792
1180.60,5.904
1180.80,5.838
1181.00,5.834
1181.20,5.872
1181.40,5.844
1181.60,5.87
1181.80,5.83
1182.00,5.864
1182.20,5.842
1182.40,5.808
1182.60,5.852
1182.80,5.896
1183.00,5.738
1183.20,5.826
1183.40,5.834
1183.60,5.85
1183.80,5.856
1184.00,5.806
1184.20,5.85
1184.40,5.872
1184.60,5.814
1184.80,5.844
1185.00,5.812
1185.20,5.814
1185.40,5.856
1185.60,5.814
1185.80,5.856
1186.00,5.836
1186.20,5.828
1186.40,5.828
1186.60,5.842
1186.80,5.838
1187.00,5.842
1187.20,5.762
1187.40,5.812
1187.60,5.816
1187.80,5.87
1188.00,5.842
1188.20,5.826
1188.40,5.83
1188.60,5.822
1188.80,5.814
1189.00,5.814
1189.20,5.878
1189.40,5.826
1189.60,5.798
1189.80,5.844
1190.00,5.838
1190.20,5.794
1190.40,5.85
1190.60,5.858
1190.80,5.826
1191.00,5.822
1191.20,5.808
1191.40,5.814
1191.80,5.838
1192.00,5.822
1192.20,5.842
1192.40,5.856
1192.60,5.826
1192.80,5.826
1193.00,5.834
1193.20,5.816
1193.40,5.838
1193.60,5.858
1193.80,5.826
1194.00,5.85
1194.20,5.794
1194.40,5.838
1194.60,5.816
1194.80,5.878
1195.00,5.83
1195.20,5.82
1195.40,5.858
1195.60,5.782
1195.80,5.814
1196.00,5.864
1196.20,5.842
1196.40,5.826
1196.60,5.842
1196.80,5.86
1197.00,5.836
1197.20,5.836
1197.40,5.806
1197.60,5.786
1197.80,5.856
1198.00,5.922
1198.20,5.738
1198.40,5.872
1198.60,5.848
1198.80,5.798
1199.00,5.822
1199.20,5.848
1199.40,5.866
1199.60,5.848
1199.80,5.812
1200.00,5.864
1200.20,5.8
1200.40,5.844
1200.60,5.848
1200.80,5.808
1201.00,5.866
1201.20,5.806
1201.40,5.842
1201.60,5.828
1201.80,5.866
1202.00,5.816
1202.20,5.812
1202.40,5.816
1202.60,5.886
1202.80,5.816
1203.00,5.808
1203.20,5.87
1203.40,5.848
1203.60,5.768
1203.80,5.826
1204.00,5.848
1204.20,5.842
1204.40,5.842
1204.60,5.842
1204.80,5.85
1205.00,5.814
1205.20,5.85
1205.40,5.812
1205.60,5.83
1205.80,5.784
1206.00,5.842
1206.20,5.808
1206.40,5.856
1206.60,5.848
1206.80,5.822
1207.00,5.856
1207.20,5.814
1207.40,5.804
1207.60,5.858
1207.80,5.83
1208.00,5.794
1208.20,5.856
1208.40,5.834
1208.60,5.806
1208.80,5.794
1209.00,5.864
1209.20,5.828
1209.40,5.856
1209.60,5.87
1209.80,5.794
1210.00,5.848
1210.20,5.82
1210.40,5.838
1210.60,5.814
1210.80,5.86
1211.00,5.816
1211.20,5.828
1211.40,5.874
1211.60,5.834
1211.80,5.806
1212.00,5.826
1212.20,5.848
1212.40,5.864
1212.60,5.834
1212.80,5.814
1213.00,5.856
1213.20,5.808
1213.40,5.842
1213.60,5.828
1213.80,5.87
1214.00,5.798
1214.20,5.842
1214.40,5.848
1214.60,5.864
1214.80,5.816
1215.00,5.848
1215.20,5.828
1215.40,5.836
1215.60,5.838
1215.80,5.856
1216.00,5.88
1216.20,5.728
1216.40,5.842
1216.60,5.83
1216.80,5.82
1217.00,5.842
1217.20,5.864
1217.40,5.822
1217.60,5.844
1217.80,5.836
1218.00,5.798
1218.20,5.834
1218.40,5.856
1218.60,5.834
1218.80,5.836
1219.00,5.82
1219.20,5.87
1219.40,5.782
1219.60,5.864
1219.80,5.8
1220.00,5.878
1220.20,5.806
1220.40,5.872
1220.60,5.826
1220.80,5.822
1221.00,5.806
1221.20,5.844
1221.40,5.798
1221.60,5.814
1221.80,5.844
1222.00,5.858
1222.20,5.86
1222.40,5.804
1222.60,5.86
1222.80,5.834
1223.00,5.836
1223.20,5.826
1223.40,5.83
1223.60,5.798
1223.80,5.808
1224.00,5.866
1224.20,5.784
1224.40,5.836
1224.60,5.836
1224.80,5.834
1225.00,5.844
1225.20,5.856
1225.40,5.82
1225.60,5.842
1225.80,5.838
1226.00,5.878
1226.20,5.86
1226.40,5.792
1226.60,5.83
1226.80,5.816
1227.00,5.828
1227.20,5.808
1227.40,5.822
1227.60,5.874
1227.80,5.812
1228.00,5.844
1228.20,5.838
1228.40,5.848
1228.60,5.852
1228.80,5.848
1229.00,5.826
1229.20,5.842
1229.40,5.826
1229.60,5.826
1229.80,5.852
1230.00,5.82
1230.20,5.808
1230.40,5.866
1230.60,5.828
1230.80,5.83
1231.00,5.856
1231.20,5.826
1231.40,5.844
1231.60,5.822
1231.80,5.828
1232.00,5.814
1232.20,5.864
1232.40,5.812
1232.60,5.856
1232.80,5.836
1233.00,5.834
1233.20,5.828
1233.40,5.826
1233.60,5.808
1233.80,5.85
1234.00,5.892
1234.20,5.778
1234.40,5.87
1234.60,5.82
1234.80,5.848
1235.00,5.826
1235.20,5.8
1235.40,5.822
1235.60,5.856
1235.80,5.808
1236.00,5.82
1236.20,5.814
1236.40,5.856
1236.60,5.806
1236.80,5.874
1237.00,5.83
1237.20,5.822
1237.40,5.806
1237.60,5.816
1237.80,5.874
1238.00,5.786
1238.20,5.882
1238.40,5.848
1238.60,5.82
1238.80,5.82
1239.00,5.812
1239.20,5.858
1239.40,5.83
1239.60,5.85
1239.80,5.808
1240.00,5.856
1240.20,5.836
1240.40,5.798
1240.60,5.892
1240.80,5.776
1241.00,5.852
1241.20,5.814
1241.40,5.838
1241.60,5.8
1241.80,5.83
1242.00,5.83
1242.20,5.866
1242.40,5.83
1242.60,5.836
1242.80,5.838
1243.00,5.82
1243.20,5.844
1243.40,5.858
1243.60,5.812
1243.80,5.852
1244.00,5.848
1244.20,5.808
1244.40,5.822
1244.60,5.838
1244.80,5.814
1245.00,5.864
1245.20,5.844
1245.40,5.836
1245.60,5.848
1245.80,5.826
1246.00,5.82
1246.20,5.786
1246.40,5.812
1246.60,5.844
1246.80,5.848
1247.00,5.828
1247.20,5.786
1247.40,5.856
1247.60,5.86
1247.80,5.808
1248.00,5.83
1248.20,5.9
1248.40,5.816
1248.60,5.844
1248.80,5.826
1249.00,5.784
1249.20,5.816
1249.40,5.856
1249.60,5.834
1249.80,5.82
1250.00,5.858
1250.20,5.794
1250.40,5.85
1250.60,5.826
1250.80,5.826
1251.00,5.822
1251.20,5.874
1251.40,5.848
1251.60,5.828
1251.80,5.83
1252.00,5.908
1252.20,5.756
1252.40,5.808
1252.60,5.86
1252.80,5.858
1253.00,5.812
1253.20,5.826
1253.40,5.85
1253.60,5.836
1253.80,5.822
1254.00,5.85
1254.20,5.826
1254.40,5.844
1254.60,5.834
1254.80,5.856
1255.00,5.808
1255.20,5.798
1255.40,5.842
1255.60,5.848
1255.80,5.786
1256.00,5.834
1256.20,5.842
1256.40,5.852
1256.60,5.856
1256.80,5.834
1257.00,5.828
1257.20,5.816
1257.40,5.834
1257.60,5.848
1257.80,5.804
1258.00,5.842
1258.20,5.86
1258.40,5.822
1258.60,5.83
1258.80,5.85
1259.00,5.826
1259.20,5.864
1259.40,5.834
1259.60,5.848
1259.80,5.812
1260.00,5.844
1260.20,5.814
1260.40,5.852
1260.60,5.864
1260.80,5.816
1261.00,5.828
1261.20,5.826
1261.40,5.83
1261.60,5.842
1261.80,5.834
1262.00,5.842
1262.20,5.8
1262.40,5.916
1262.60,5.842
1262.80,5.8
1263.00,5.816
1263.20,5.86
1263.40,5.814
1263.60,5.888
1263.80,5.83
1264.00,5.834
1264.20,5.816
1264.40,5.814
1264.60,5.834
1264.80,5.828
1265.00,5.87
1265.20,5.866
1265.40,5.848
1265.60,5.77
1265.80,5.842
1266.00,5.836
1266.20,5.834
1266.40,5.812
1266.60,5.882
1266.80,5.836
1267.00,5.848
1267.20,5.792
1267.40,5.886
1267.60,5.848
1267.80,5.826
1268.00,5.864
1268.20,5.804
1268.40,5.814
1268.60,5.902
1268.80,5.842
1269.00,5.828
1269.20,5.816
1269.40,5.808
1269.60,5.886
1269.80,5.812
1270.00,5.926
1270.20,5.746
1270.40,5.828
1270.60,5.826
1270.80,5.804
1271.00,5.85
1271.20,5.814
1271.40,5.842
1271.60,5.82
1271.80,5.848
1272.00,5.812
1272.20,5.866
1272.40,5.836
1272.60,5.768
1272.80,5.86
1273.00,5.852
1273.20,5.816
1273.40,5.83
1273.60,5.828
1273.80,5.836
1274.00,5.836
1274.20,5.856
1274.40,5.842
1274.60,5.83
1274.80,5.858
1275.00,5.844
1275.20,5.82
1275.40,5.888
1275.60,5.822
1275.80,5.816
1276.00,5.852
1276.20,5.834
1276.40,5.836
1276.60,5.822
1276.80,5.852
1277.00,5.866
1277.20,5.786
1277.40,5.88
1277.60,5.794
1277.80,5.826
1278.00,5.812
1278.20,5.828
1278.40,5.814
1278.60,5.838
1278.80,5.864
1279.00,5.858
1279.20,5.812
1279.40,5.892
1279.60,5.838
1279.80,5.826
1280.00,5.79
1280.20,5.838
1280.40,5.852
1280.60,5.826
1280.80,5.866
1281.00,5.834
1281.20,5.79
1281.40,5.792
1281.60,5.87
1281.80,5.842
1282.00,5.858
1282.20,5.836
1282.40,5.808
1282.60,5.864
1282.80,5.866
1283.00,5.814
1283.20,5.816
1283.40,5.826
1283.60,5.87
1283.80,5.852
1284.00,5.826
1284.20,5.842
1284.40,5.848
1284.60,5.852
1284.80,5.848
1285.00,5.804
1285.20,5.82
1285.40,5.826
1285.60,5.82
1285.80,5.83
1286.00,5.852
1286.20,5.828
1286.40,5.836
1286.60,5.82
1286.80,5.842
1287.00,5.828
1287.20,5.838
1287.40,5.848
1287.60,5.834
1287.80,5.82
1288.00,5.888
1288.20,5.772
1288.40,5.808
1288.60,5.85
1288.80,5.826
1289.00,5.848
1289.20,5.836
1289.40,5.86
1289.60,5.85
1289.80,5.816
1290.00,5.804
1290.20,5.842
1290.40,5.866
1290.60,5.842
1290.80,5.77
1291.00,5.838
1291.20,5.886
1291.40,5.836
1291.60,5.822
1291.80,5.786
1292.00,5.83
1292.20,5.88
1292.40,5.836
1292.60,5.816
1292.80,5.82
1293.00,5.836
1293.20,5.844
1293.40,5.872
1293.60,5.836
1293.80,5.826
1294.00,5.834
1294.20,5.864
1294.40,5.848
1294.60,5.858
1294.80,5.806
1295.00,5.838
1295.20,5.82
1295.40,5.804
1295.60,5.838
1295.80,5.79
1296.00,5.826
1296.20,5.858
1296.40,5.858
1296.60,5.834
1296.80,5.822
1297.00,5.848
1297.20,5.842
1297.40,5.82
1297.60,5.804
1297.80,5.822
1298.00,5.882
1298.20,5.844
1298.40,5.852
1298.60,5.856
1298.80,5.85
1299.00,5.812
1299.20,5.828
1299.40,5.886
1299.60,5.828
1299.80,5.858
1300.00,5.8
1300.20,5.798
1300.40,5.838
1300.60,5.864
1300.80,5.8
1301.00,5.834
1301.20,5.836
1301.40,5.892
1301.60,5.858
1301.80,5.822
1302.00,5.844
1302.20,5.808
1302.40,5.8
1302.60,5.878
1302.80,5.83
1303.00,5.838
1303.20,5.856
1303.40,5.782
1303.60,5.848
1303.80,5.828
1304.00,5.822
1304.20,5.844
1304.40,5.838
1304.60,5.856
1304.80,5.844
1305.00,5.822
1305.20,5.782
1305.40,5.872
1305.60,5.85
1305.80,5.816
1306.00,5.902
1306.20,5.826
1306.40,5.834
1306.60,5.822
1306.80,5.826
1307.00,5.82
1307.20,5.838
1307.40,5.836
1307.60,5.786
1307.80,5.85
1308.00,5.866
1308.20,5.822
1308.40,5.804
1308.60,5.828
1308.80,5.872
1309.00,5.858
1309.20,5.804
1309.40,5.864
1309.60,5.822
1309.80,5.856
1310.00,5.816
1310.20,5.834
1310.40,5.87
1310.60,5.806
1310.80,5.842
1311.00,5.826
1311.20,5.86
1311.40,5.8
1311.60,5.844
1311.80,5.858
1312.00,5.83
1312.20,5.822
1312.40,5.838
1312.60,5.864
1312.80,5.798
1313.00,5.87
1313.20,5.838
1313.40,5.888
1313.60,5.806
1313.80,5.82
1314.00,5.822
1314.20,5.86
1314.40,5.848
1314.60,5.812
1314.80,5.842
1315.00,5.826
1315.20,5.804
1315.40,5.85
1315.60,5.858
1315.80,5.848
1316.00,5.838
1316.20,5.852
1316.40,5.83
1316.60,5.844
1316.80,5.836
1317.00,5.85
1317.20,5.86
1317.40,5.828
1317.60,5.798
1317.80,5.826
1318.00,5.904
1318.20,5.826
1318.40,5.828
1318.60,5.842
1318.80,5.874
1319.00,5.804
1319.20,5.79
1319.40,5.804
1319.60,5.88
1319.80,5.864
1320.00,5.834
1320.20,5.808
1320.40,5.838
1320.60,5.848
1320.80,5.842
1321.00,5.808
1321.20,5.85
1321.40,5.814
1321.60,5.786
1321.80,5.828
1322.00,5.828
1322.20,5.848
1322.40,5.87
1322.60,5.816
1322.80,5.872
1323.00,5.83
1323.20,5.786
1323.40,5.834
1323.60,5.852
1323.80,5.842
1324.00,5.914
1324.20,5.71
1324.40,5.822
1324.60,5.85
1324.80,5.828
1325.00,5.844
1325.20,5.838
1325.40,5.838
1325.60,5.814
1325.80,5.816
1326.00,5.87
1326.20,5.8
1326.40,5.804
1326.60,5.834
1326.80,5.836
1327.00,5.872
1327.20,5.8
1327.40,5.836
1327.60,5.848
1327.80,5.806
1328.00,5.852
1328.20,5.85
1328.40,5.872
1328.60,5.79
1328.80,5.826
1329.00,5.926
1329.20,5.848
1329.40,5.83
1329.60,5.784
1329.80,5.866
1330.00,5.814
1330.20,5.838
1330.40,5.814
1330.60,5.834
1330.80,5.858
1331.00,5.85
1331.20,5.806
1331.40,5.848
1331.60,5.892
1331.80,5.798
1332.00,5.844
1332.20,5.786
1332.40,5.856
1332.60,5.866
1332.80,5.83
1333.00,5.808
1333.20,5.874
1333.40,5.822
1333.60,5.826
1333.80,5.844
1334.00,5.852
1334.20,5.814
1334.40,5.85
1334.60,5.844
1334.80,5.842
1335.00,5.834
1335.20,5.856
1335.40,5.83
1335.60,5.822
1335.80,5.848
1336.00,5.808
1336.20,5.826
1336.40,5.852
1336.60,5.856
1336.80,5.844
1337.00,5.82
1337.20,5.852
1337.40,5.864
1337.60,5.826
1337.80,5.812
1338.00,5.812
1338.20,5.842
1338.40,5.864
1338.60,5.814
1338.80,5.812
1339.00,5.864
1339.20,5.806
1339.40,5.826
1339.60,5.826
1339.80,5.864
1340.00,5.79
1340.20,5.858
1340.40,5.812
1340.60,5.85
1340.80,5.826
1341.00,5.808
1341.20,5.836
1341.40,5.844
1341.60,5.836
1341.80,5.878
1342.00,5.926
1342.20,5.726
1342.40,5.828
1342.60,5.834
1342.80,5.844
1343.00,5.798
1343.20,5.86
1343.40,5.836
1343.60,5.856
1343.80,5.75
1344.00,5.87
1344.20,5.83
1344.40,5.834
1344.60,5.808
1344.80,5.842
1345.00,5.822
1345.20,5.826
1345.40,5.806
1345.60,5.842
1345.80,5.85
1346.00,5.814
1346.20,5.874
1346.40,5.85
1346.60,5.82
1346.80,5.834
1347.00,5.82
1347.20,5.814
1347.40,5.852
1347.60,5.826
1347.80,5.826
1348.00,5.858
1348.20,5.844
1348.40,5.842
1348.60,5.85
1348.80,5.79
1349.00,5.834
1349.20,5.85
1349.40,5.856
1349.60,5.842
1349.80,5.834
1350.00,5.816
1350.20,5.864
1350.40,5.828
1350.60,5.822
1350.80,5.808
1351.00,5.834
1351.20,5.842
1351.40,5.878
1351.60,5.864
1351.80,5.806
1352.00,5.816
1352.20,5.874
1352.40,5.826
1352.60,5.834
1352.80,5.812
1353.00,5.812
1353.20,5.842
1353.40,5.804
1353.60,5.872
1353.80,5.866
1354.00,5.85
1354.20,5.804
1354.40,5.838
1354.60,5.828
1354.80,5.834
1355.00,5.798
1355.20,5.838
1355.40,5.844
1355.60,5.856
1355.80,5.82
1356.00,5.838
1356.20,5.816
1356.40,5.866
1356.60,5.79
1356.80,5.85
1357.00,5.836
1357.20,5.838
1357.40,5.836
1357.60,5.804
1357.80,5.836
1358.00,5.836
1358.20,5.842
1358.40,5.836
1358.60,5.826
1358.80,5.83
1359.00,5.826
1359.20,5.83
1359.40,5.826
1359.60,5.85
1359.80,5.828
1360.00,5.93
1360.20,5.746
1360.40,5.85
1360.60,5.826
1360.80,5.816
1361.00,5.836
1361.20,5.842
1361.40,5.82
1361.60,5.808
1361.80,5.872
1362.00,5.848
1362.20,5.816
1362.40,5.784
1362.60,5.82
1362.80,5.848
1363.00,5.826
1363.20,5.874
1363.40,5.866
1363.60,5.792
1363.80,5.842
1364.00,5.822
1364.20,5.82
1364.40,5.848
1364.60,5.852
1364.80,5.852
1365.00,5.83
1365.20,5.858
1365.40,5.842
1365.60,5.826
1365.80,5.8
1366.00,5.844
1366.20,5.804
1366.40,5.88
1366.60,5.786
1366.80,5.814
1367.00,5.878
1367.20,5.826
1367.40,5.844
1367.60,5.828
1367.80,5.83
1368.00,5.858
1368.20,5.814
1368.40,5.812
1368.60,5.848
1368.80,5.826
1369.00,5.826
1369.20,5.86
1369.40,5.794
1369.60,5.886
1369.80,5.848
1370.00,5.808
1370.20,5.858
1370.40,5.82
1370.60,5.856
1370.80,5.822
1371.00,5.808
1371.20,5.804
1371.40,5.83
1371.60,5.83
1371.80,5.856
1372.00,5.86
1372.20,5.842
1372.40,5.828
1372.60,5.808
1372.80,5.814
1373.00,5.808
1373.20,5.872
1373.40,5.826
1373.60,5.834
1373.80,5.864
1374.00,5.79
1374.20,5.828
1374.40,5.822
1374.60,5.816
1374.80,5.842
1375.00,5.85
1375.20,5.826
1375.40,5.804
1375.60,5.828
1375.80,5.826
1376.00,5.86
1376.20,5.816
1376.40,5.83
1376.60,5.826
1376.80,5.826
1377.00,5.834
1377.20,5.808
1377.40,5.87
1377.60,5.826
1377.80,5.87
1378.00,5.916
1378.20,5.716
1378.40,5.838
1378.60,5.85
1378.80,5.826
1379.00,5.85
1379.20,5.834
1379.40,5.85
1379.60,5.82
1379.80,5.848
1380.00,5.836
1380.20,5.864
1380.40,5.808
1380.60,5.856
1380.80,5.806
1381.00,5.816
1381.20,5.842
1381.40,5.894
1381.60,5.784
1381.80,5.834
1382.00,5.808
1382.20,5.826
1382.40,5.838
1382.60,5.812
1382.80,5.864
1383.00,5.834
1383.20,5.866
1383.40,5.82
1383.60,5.8
1383.80,5.9
1384.00,5.79
1384.20,5.822
1384.40,5.848
1384.60,5.806
1384.80,5.83
1385.00,5.826
1385.20,5.834
1385.40,5.82
1385.60,5.87
1385.80,5.814
1386.00,5.844
1386.20,5.848
1386.40,5.812
1386.60,5.828
1386.80,5.814
1387.00,5.836
1387.20,5.842
1387.40,5.872
1387.60,5.826
1387.80,5.844
1388.00,5.836
1388.20,5.858
1388.40,5.838
1388.60,5.844
1388.80,5.784
1389.00,5.834
1389.20,5.852
1389.40,5.848
1389.60,5.838
1389.80,5.852
1390.00,5.792
1390.20,5.812
1390.40,5.85
1390.60,5.836
1390.80,5.834
1391.00,5.83
1391.20,5.806
1391.40,5.82
1391.60,5.838
1391.80,5.848
1392.00,5.836
1392.20,5.836
1392.40,5.792
1392.60,5.844
1392.80,5.836
1393.00,5.798
1393.20,5.834
1393.40,5.804
1393.60,5.874
1393.80,5.798
1394.00,5.874
1394.20,5.844
1394.40,5.784
1394.60,5.86
1394.80,5.844
1395.00,5.822
1395.20,5.85
1395.40,5.826
1395.60,5.82
1395.80,5.778
1396.00,5.944
1396.20,5.742
1396.40,5.88
1396.60,5.85
1396.80,5.82
1397.00,5.778
1397.20,5.848
1397.40,5.844
1397.60,5.834
1397.80,5.87
1398.00,5.844
1398.20,5.794
1398.40,5.834
1398.60,5.856
1398.80,5.82
1399.00,5.812
1399.20,5.866
1399.40,5.79
1399.60,5.896
1399.80,5.822
1400.00,5.844
1400.20,5.836
1400.40,5.86
1400.60,5.806
1400.80,5.874
1401.00,5.814
1401.20,5.834
1401.40,5.886
1401.60,5.874
1401.80,5.75
1402.00,5.834
1402.20,5.838
1402.40,5.826
1402.60,5.836
1402.80,5.816
1403.00,5.874
1403.20,5.834
1403.40,5.852
1403.60,5.82
1403.80,5.852
1404.00,5.866
1404.20,5.826
1404.40,5.75
1404.60,5.834
1404.80,5.83
1405.00,5.834
1405.20,5.826
1405.40,5.842
1405.60,5.858
1405.80,5.826
1406.00,5.85
1406.20,5.82
1406.40,5.816
1406.60,5.808
1406.80,5.87
1407.00,5.852
1407.20,5.798
1407.40,5.88
1407.60,5.82
1407.80,5.864
1408.00,5.844
1408.20,5.806
1408.40,5.83
1408.60,5.852
1408.80,5.856
1409.00,5.808
1409.20,5.808
1409.40,5.804
1409.60,5.82
1409.80,5.858
1410.00,5.844
1410.20,5.87
1410.40,5.838
1410.60,5.85
1410.80,5.776
1411.00,5.85
1411.20,5.852
1411.40,5.86
1411.60,5.814
1411.80,5.8
1412.00,5.816
1412.20,5.83
1412.40,5.85
1412.60,5.828
1412.80,5.848
1413.00,5.798
1413.20,5.83
1413.40,5.874
1413.60,5.836
1413.80,5.87
1414.00,5.874
1414.20,5.726
1414.40,5.83
1414.60,5.9
1414.80,5.794
1415.00,5.826
1415.20,5.814
1415.40,5.836
1415.60,5.834
1415.80,5.872
1416.00,5.826
1416.20,5.834
1416.40,5.842
1416.60,5.822
1416.80,5.85
1417.00,5.874
1417.20,5.872
1417.40,5.814
1417.60,5.816
1417.80,5.838
1418.00,5.852
1418.20,5.826
1418.40,5.82
1418.60,5.85
1418.80,5.826
1419.00,5.858
1419.20,5.814
1419.40,5.858
1419.60,5.842
1419.80,5.792
1420.00,5.87
1420.20,5.808
1420.40,5.812
1420.60,5.872
1420.80,5.864
1421.00,5.792
1421.20,5.848
1421.40,5.828
1421.60,5.816
1421.80,5.836
1422.00,5.85
1422.20,5.822
1422.40,5.838
1422.60,5.826
1422.80,5.848
1423.00,5.816
1423.20,5.88
1423.40,5.782
1423.60,5.838
1423.80,5.8
1424.00,5.83
1424.20,5.866
1424.40,5.856
1424.60,5.836
1424.80,5.772
1425.00,5.852
1425.20,5.874
1425.40,5.79
1425.60,5.828
1425.80,5.82
1426.00,5.836
1426.20,5.804
1426.40,5.856
1426.60,5.858
1426.80,5.8
1427.00,5.878
1427.20,5.864
1427.40,5.782
1427.60,5.814
1427.80,5.848
1428.00,5.834
1428.20,5.804
1428.40,5.814
1428.60,5.816
1428.80,5.828
1429.00,5.83
1429.20,5.866
1429.40,5.86
1429.60,5.814
1429.80,5.83
1430.00,5.828
1430.20,5.804
1430.40,5.886
1430.60,5.812
1430.80,5.822
1431.00,5.866
1431.20,5.856
1431.40,5.816
1431.60,5.842
1431.80,5.826
1432.00,5.924
1432.20,5.748
1432.40,5.83
1432.60,5.85
1432.80,5.804
1433.00,5.828
1433.20,5.822
1433.40,5.858
1433.60,5.794
1433.80,5.866
1434.00,5.83
1434.20,5.842
1434.40,5.888
1434.60,5.798
1434.80,5.82
1435.00,5.79
1435.20,5.86
1435.40,5.866
1435.60,5.828
1435.80,5.836
1436.00,5.83
1436.20,5.848
1436.40,5.848
1436.60,5.85
1436.80,5.804
1437.00,5.828
1437.20,5.822
1437.40,5.864
1437.60,5.88
1437.80,5.79
1438.00,5.85
1438.20,5.85
1438.40,5.836
1438.60,5.828
1438.80,5.772
1439.00,5.882
1439.20,5.806
1439.40,5.848
1439.60,5.838
1439.80,5.834
1440.00,5.82
1440.20,5.836
1440.40,5.826
1440.60,5.814
1440.80,5.814
1441.00,5.88
1441.20,5.816
1441.40,5.842
1441.60,5.838
1441.80,5.804
1442.00,5.822
1442.20,5.83
1442.40,5.866
1442.60,5.826
1442.80,5.844
1443.00,5.852
1443.20,5.812
1443.40,5.85
1443.60,5.826
1443.80,5.86
1444.00,5.8
1444.20,5.842
1444.40,5.8
1444.60,5.826
1444.80,5.86
1445.00,5.826
1445.20,5.816
1445.40,5.808
1445.60,5.864
1445.80,5.858
1446.00,5.812
1446.20,5.864
1446.40,5.786
1446.60,5.836
1446.80,5.882
1447.00,5.794
1447.20,5.844
1447.40,5.87
1447.60,5.794
1447.80,5.8
1448.00,5.816
1448.20,5.882
1448.40,5.864
1448.60,5.872
1448.80,5.816
1449.00,5.786
1449.20,5.842
1449.40,5.88
1449.60,5.814
1449.80,5.806
1450.00,5.966
1450.20,5.74
1450.40,5.86
1450.60,5.83
1450.80,5.812
1451.00,5.826
1451.20,5.852
1451.40,5.82
1451.60,5.812
1451.80,5.886
1452.00,5.828
1452.20,5.826
1452.40,5.848
1452.60,5.826
1452.80,5.82
1453.00,5.86
1453.20,5.858
1453.40,5.79
1453.60,5.822
1453.80,5.848
1454.00,5.844
1454.20,5.874
1454.40,5.792
1454.60,5.852
1454.80,5.816
1455.00,5.828
1455.20,5.852
1455.40,5.838
1455.60,5.79
1455.80,5.838
1456.00,5.826
1456.20,5.822
1456.40,5.886
1456.60,5.804
1456.80,5.842
1457.00,5.844
1457.20,5.826
1457.40,5.776
1457.60,5.822
1457.80,5.852
1458.00,5.8
1458.20,5.836
1458.40,5.874
1458.60,5.814
1458.80,5.86
1459.00,5.814
1459.20,5.826
1459.40,5.836
1459.60,5.85
1459.80,5.76
1460.00,5.83
1460.20,5.858
1460.40,5.864
1460.60,5.838
1460.80,5.836
1461.00,5.842
1461.20,5.812
1461.40,5.83
1461.60,5.888
1461.80,5.848
1462.00,5.828
1462.20,5.842
1462.40,5.816
1462.60,5.794
1462.80,5.872
1463.00,5.85
1463.20,5.842
1463.40,5.838
1463.60,5.856
1463.80,5.9
1464.00,5.804
1464.20,5.848
1464.40,5.82
1464.60,5.804
1464.80,5.83
1465.00,5.852
1465.20,5.838
1465.40,5.844
1465.60,5.822
1465.80,5.784
1466.00,5.848
1466.20,5.828
1466.40,5.852
1466.60,5.848
1466.80,5.85
1467.00,5.814
1467.20,5.856
1467.40,5.83
1467.60,5.872
1467.80,5.798
1468.00,5.892
1468.20,5.768
1468.40,5.836
1468.60,5.856
1468.80,5.798
1469.00,5.842
1469.20,5.856
1469.40,5.836
1469.60,5.808
1469.80,5.852
1470.00,5.834
1470.20,5.838
1470.40,5.822
1470.60,5.838
1470.80,5.806
1471.00,5.816
1471.20,5.836
1471.40,5.86
1471.60,5.808
1471.80,5.808
1472.00,5.85
1472.20,5.848
1472.40,5.842
1472.60,5.83
1472.80,5.814
1473.00,5.86
1473.20,5.83
1473.40,5.772
1473.60,5.828
1473.80,5.886
1474.00,5.804
1474.20,5.828
1474.40,5.85
1474.60,5.828
1474.80,5.864
1475.00,5.852
1475.20,5.83
1475.40,5.812
1475.60,5.85
1475.80,5.83
1476.00,5.836
1476.20,5.782
1476.40,5.848
1476.60,5.844
1476.80,5.882
1477.00,5.782
1477.20,5.852
1477.40,5.826
1477.60,5.864
1477.80,5.85
1478.00,5.814
1478.20,5.828
1478.40,5.86
1478.60,5.838
1478.80,5.836
1479.00,5.83
1479.20,5.852
1479.40,5.8
1479.60,5.85
1479.80,5.844
1480.00,5.816
1480.20,5.826
1480.40,5.834
1480.60,5.842
1480.80,5.836
1481.00,5.852
1481.20,5.852
1481.40,5.83
1481.60,5.872
1481.80,5.844
1482.00,5.814
1482.20,5.826
1482.40,5.812
1482.60,5.828
1482.80,5.812
1483.00,5.852
1483.20,5.828
1483.40,5.874
1483.60,5.806
1483.80,5.848
1484.00,5.842
1484.20,5.852
1484.40,5.826
1484.60,5.82
1484.80,5.838
1485.00,5.882
1485.20,5.792
1485.40,5.874
1485.60,5.786
1485.80,5.808
1486.00,5.966
1486.20,5.746
1486.40,5.842
1486.60,5.826
1486.80,5.826
1487.00,5.806
1487.20,5.838
1487.40,5.812
1487.60,5.8
1487.80,5.848
1488.00,5.856
1488.20,5.83
1488.40,5.848
1488.60,5.8
1488.80,5.848
1489.00,5.822
1489.20,5.836
1489.40,5.8
1489.60,5.882
1489.80,5.86
1490.00,5.842
1490.20,5.848
1490.40,5.804
1490.60,5.798
1490.80,5.878
1491.00,5.784
1491.20,5.826
1491.40,5.856
1491.60,5.836
1492.00,5.804
1492.20,5.844
1492.40,5.834
1492.60,5.848
1492.80,5.836
1493.00,5.83
1493.20,5.844
1493.40,5.816
1493.60,5.812
1493.80,5.9
1494.00,5.822
1494.20,5.872
1494.40,5.808
1494.60,5.814
1494.80,5.856
1495.00,5.792
1495.20,5.874
1495.40,5.804
1495.60,5.806
1495.80,5.848
1496.00,5.85
1496.20,5.814
1496.40,5.872
1496.60,5.804
1496.80,5.864
1497.00,5.836
1497.20,5.856
1497.40,5.794
1497.60,5.856
1497.80,5.87
1498.00,5.808
1498.20,5.844
1498.40,5.836
1498.60,5.826
1498.80,5.812
1499.00,5.872
1499.20,5.834
1499.40,5.83
1499.60,5.848
1499.80,5.834
1500.00,5.798
1500.20,5.848
1500.40,5.798
1500.60,5.858
1500.80,5.874
1501.00,5.842
1501.20,5.914
1501.40,5.742
1501.60,5.834
1501.80,5.836
1502.00,5.842
1502.20,5.812
1502.40,5.822
1502.60,5.874
1502.80,5.804
1503.00,5.848
1503.20,5.85
1503.40,5.838
1503.60,5.836
1503.80,5.768
1504.00,5.914
1504.20,5.844
1504.40,5.828
1504.60,5.822
1504.80,5.83
1505.00,5.77
1505.20,5.844
1505.40,5.82
1505.60,5.834
1505.80,5.816
1506.00,5.874
1506.20,5.828
1506.40,5.826
1506.60,5.792
1506.80,5.806
1507.00,5.82
1507.20,5.878
1507.40,5.856
1507.60,5.804
1507.80,5.864
1508.00,5.838
1508.20,5.852
1508.40,5.812
1508.60,5.806
1508.80,5.834
1509.00,5.826
1509.20,5.852
1509.40,5.814
1509.60,5.86
1509.80,5.806
1510.00,5.834
1510.20,5.86
1510.40,5.804
1510.60,5.77
1510.80,5.874
1511.00,5.822
1511.20,5.874
1511.40,5.826
1511.60,5.822
1511.80,5.83
1512.00,5.814
1512.20,5.822
1512.40,5.844
1512.60,5.836
1512.80,5.826
1513.00,5.834
1513.20,5.858
1513.40,5.826
1513.60,5.866
1513.80,5.816
1514.00,5.806
1514.20,5.858
1514.40,5.856
1514.60,5.85
1514.80,5.834
1515.00,5.864
1515.20,5.814
1515.40,5.814
1515.60,5.808
1515.80,5.844
1516.00,5.826
1516.20,5.828
1516.40,5.83
1516.60,5.834
1516.80,5.816
1517.00,5.826
1517.20,5.8
1517.40,5.85
1517.60,5.87
1517.80,5.82
1518.00,5.87
1518.20,5.86
1518.40,5.82
1518.60,5.826
1518.80,5.82
1519.00,5.806
1519.20,5.946
1519.40,5.746
1519.60,5.838
1519.80,5.82
1520.00,5.814
1520.20,5.828
1520.40,5.814
1520.60,5.838
1520.80,5.838
1521.00,5.85
1521.20,5.776
1521.40,5.864
1521.60,5.806
1521.80,5.826
1522.00,5.834
1522.20,5.828
1522.40,5.828
1522.60,5.804
1522.80,5.834
1523.00,5.848
1523.20,5.838
1523.40,5.836
1523.60,5.838
1523.80,5.834
1524.00,5.864
1524.20,5.848
1524.40,5.82
1524.60,5.828
1524.80,5.816
1525.00,5.838
1525.20,5.83
1525.40,5.83
1525.60,5.838
1525.80,5.848
1526.00,5.836
1526.20,5.804
1526.40,5.872
1526.60,5.808
1526.80,5.822
1527.00,5.872
1527.20,5.842
1527.40,5.834
1527.60,5.828
1527.80,5.83
1528.00,5.79
1528.20,5.842
1528.40,5.808
1528.60,5.848
1528.80,5.844
1529.00,5.838
1529.20,5.842
1529.40,5.86
1529.60,5.794
1529.80,5.822
1530.00,5.88
1530.20,5.834
1530.40,5.82
1530.60,5.794
1530.80,5.878
1531.00,5.838
1531.20,5.838
1531.40,5.848
1531.60,5.866
1531.80,5.82
1532.00,5.838
1532.20,5.85
1532.40,5.848
1532.60,5.794
1532.80,5.852
1533.00,5.83
1533.20,5.828
1533.40,5.864
1533.60,5.842
1533.80,5.814
1534.00,5.85
1534.20,5.784
1534.40,5.844
1534.60,5.792
1534.80,5.83
1535.00,5.872
1535.20,5.886
1535.40,5.812
1535.60,5.814
1535.80,5.866
1536.00,5.842
1536.20,5.856
1536.40,5.842
1536.60,5.816
1536.80,5.842
1537.00,5.828
1537.20,5.938
1537.40,5.778
1537.60,5.798
1537.80,5.794
1538.00,5.826
1538.20,5.88
1538.40,5.814
1538.60,5.814
1538.80,5.816
1539.00,5.874
1539.20,5.812
1539.40,5.838
1539.60,5.85
1539.80,5.87
1540.00,5.852
1540.20,5.822
1540.40,5.842
1540.60,5.814
1540.80,5.798
1541.00,5.844
1541.20,5.806
1541.40,5.852
1541.60,5.844
1541.80,5.806
1542.00,5.828
1542.20,5.866
1542.40,5.828
1542.60,5.8
1542.80,5.85
1543.00,5.77
1543.20,5.86
1543.40,5.8
1543.60,5.842
1543.80,5.834
1544.00,5.838
1544.20,5.866
1544.40,5.82
1544.60,5.83
1544.80,5.808
1545.00,5.858
1545.20,5.822
1545.40,5.804
1545.60,5.83
1545.80,5.844
1546.00,5.844
1546.20,5.874
1546.40,5.82
1546.60,5.806
1546.80,5.872
1547.00,5.822
1547.20,5.842
1547.40,5.834
1547.60,5.828
1547.80,5.83
1548.00,5.844
1548.20,5.8
1548.40,5.878
1548.60,5.842
1548.80,5.842
1549.00,5.798
1549.20,5.85
1549.40,5.858
1549.60,5.844
1549.80,5.794
1550.00,5.842
1550.20,5.822
1550.40,5.826
1550.60,5.834
1550.80,5.848
1551.00,5.83
1551.20,5.828
1551.40,5.806
1551.60,5.864
1551.80,5.85
1552.00,5.838
1552.20,5.858
1552.40,5.822
1552.60,5.848
1552.80,5.838
1553.00,5.826
1553.20,5.812
1553.40,5.87
1553.60,5.85
1553.80,5.828
1554.00,5.826
1554.20,5.87
1554.40,5.8
1554.60,5.836
1554.80,5.812
1555.00,5.822
1555.20,5.902
1555.40,5.812
1555.60,5.822
1555.80,5.8
1556.00,5.85
1556.20,5.814
1556.40,5.836
1556.60,5.812
1556.80,5.842
1557.00,5.814
1557.20,5.86
1557.40,5.826
1557.60,5.808
1557.80,5.804
1558.00,5.812
1558.20,5.85
1558.40,5.836
1558.60,5.848
1558.80,5.828
1559.00,5.816
1559.20,5.858
1559.40,5.8
1559.60,5.866
1559.80,5.792
1560.00,5.826
1560.20,5.838
1560.40,5.834
1560.60,5.836
1560.80,5.822
1561.00,5.812
1561.20,5.842
1561.40,5.878
1561.60,5.864
1561.80,5.792
1562.00,5.856
1562.20,5.836
1562.40,5.782
1562.60,5.866
1562.80,5.816
1563.00,5.852
1563.20,5.812
1563.40,5.786
1563.60,5.858
1563.80,5.83
1564.00,5.858
1564.20,5.812
1564.40,5.814
1564.60,5.858
1564.80,5.82
1565.00,5.87
1565.20,5.864
1565.40,5.826
1565.60,5.808
1565.80,5.838
1566.00,5.826
1566.20,5.874
1566.40,5.8
1566.60,5.812
1566.80,5.842
1567.00,5.838
1567.20,5.806
1567.40,5.842
1567.60,5.87
1567.80,5.808
1568.00,5.886
1568.20,5.792
1568.40,5.842
1568.60,5.826
1568.80,5.87
1569.00,5.822
1569.20,5.806
1569.40,5.858
1569.60,5.826
1569.80,5.838
1570.00,5.814
1570.20,5.834
1570.40,5.804
1570.60,5.826
1570.80,5.816
1571.00,5.896
1571.20,5.852
1571.40,5.82
1571.60,5.808
1571.80,5.812
1572.00,5.866
1572.20,5.834
1572.40,5.844
1572.60,5.838
1572.80,5.844
1573.00,5.822
1573.20,5.91
1573.40,5.76
1573.60,5.858
1573.80,5.814
1574.00,5.784
1574.20,5.836
1574.40,5.842
1574.60,5.848
1574.80,5.844
1575.00,5.828
1575.20,5.836
1575.40,5.828
1575.60,5.842
1575.80,5.826
1576.00,5.814
1576.20,5.856
1576.40,5.804
1576.60,5.86
1576.80,5.8
1577.00,5.872
1577.20,5.812
1577.40,5.82
1577.60,5.838
1577.80,5.86
1578.00,5.816
1578.20,5.808
1578.40,5.856
1578.60,5.878
1578.80,5.806
1579.00,5.826
1579.20,5.804
1579.40,5.794
1579.60,5.83
1579.80,5.822
1580.00,5.836
1580.20,5.874
1580.40,5.848
1580.60,5.82
1580.80,5.816
1581.00,5.85
1581.20,5.838
1581.40,5.83
1581.60,5.822
1581.80,5.866
1582.00,5.85
1582.20,5.842
1582.40,5.838
1582.60,5.856
1582.80,5.858
1583.00,5.838
1583.20,5.834
1583.40,5.858
1583.60,5.804
1583.80,5.828
1584.00,5.784
1584.20,5.844
1584.40,5.87
1584.60,5.82
1584.80,5.828
1585.00,5.798
1585.20,5.87
1585.40,5.806
1585.60,5.874
1585.80,5.838
1586.00,5.804
1586.20,5.83
1586.40,5.858
1586.60,5.858
1586.80,5.804
1587.00,5.822
1587.20,5.838
1587.40,5.858
1587.60,5.814
1587.80,5.856
1588.00,5.85
1588.20,5.792
1588.40,5.812
1588.60,5.83
1588.80,5.822
1589.00,5.826
1589.20,5.834
1589.40,5.83
1589.60,5.858
1589.80,5.852
1590.00,5.79
1590.20,5.87
1590.40,5.826
1590.60,5.806
1590.80,5.886
1591.00,5.828
1591.20,5.88
1591.40,5.79
1591.60,5.83
1591.80,5.844
1592.00,5.828
1592.20,5.856
1592.40,5.836
1592.60,5.844
1592.80,5.83
1593.00,5.844
1593.20,5.85
1593.40,5.792
1593.60,5.822
1593.80,5.856
1594.00,5.834
1594.20,5.848
1594.40,5.82
1594.60,5.804
1594.80,5.852
1595.00,5.822
1595.20,5.826
1595.40,5.822
1595.60,5.852
1595.80,5.786
1596.00,5.836
1596.20,5.836
1596.40,5.85
1596.60,5.88
1596.80,5.804
1597.00,5.844
1597.20,5.794
1597.40,5.864
1597.60,5.85
1597.80,5.782
1598.00,5.83
1598.20,5.87
1598.40,5.828
1598.60,5.886
1598.80,5.838
1599.00,5.82
1599.20,5.828
1599.40,5.784
1599.60,5.838
1599.80,5.848
1600.00,5.848
1600.20,5.87
1600.40,5.782
1600.60,5.894
1600.80,5.798
1601.00,5.808
1601.20,5.858
1601.40,5.828
1601.60,5.85
1601.80,5.808
1602.00,5.82
1602.20,5.858
1602.40,5.87
1602.60,5.792
1602.80,5.836
1603.00,5.844
1603.20,5.874
1603.40,5.828
1603.60,5.816
1603.80,5.828
1604.00,5.848
1604.20,5.838
1604.40,5.864
1604.60,5.844
1604.80,5.826
1605.00,5.808
1605.20,5.85
1605.40,5.842
1605.60,5.83
1605.80,5.838
1606.00,5.814
1606.20,5.808
1606.40,5.86
1606.60,5.834
1606.80,5.798
1607.00,5.848
1607.20,5.822
1607.40,5.848
1607.60,5.834
1607.80,5.812
1608.00,5.85
1608.20,5.814
1608.40,5.814
1608.60,5.858
1608.80,5.856
1609.00,5.798
1609.20,5.93
1609.40,5.748
1609.60,5.842
1609.80,5.812
1610.00,5.834
1610.20,5.844
1610.40,5.878
1610.60,5.852
1610.80,5.83
1611.00,5.784
1611.20,5.844
1611.40,5.864
1611.60,5.856
1611.80,5.83
1612.00,5.814
1612.20,5.812
1612.40,5.85
1612.60,5.866
1612.80,5.826
1613.00,5.844
1613.20,5.814
1613.40,5.864
1613.60,5.816
1613.80,5.872
1614.00,5.804
1614.20,5.834
1614.40,5.858
1614.60,5.834
1614.80,5.848
1615.00,5.83
1615.20,5.836
1615.40,5.794
1615.60,5.826
1615.80,5.856
1616.00,5.85
1616.20,5.792
1616.40,5.814
1616.60,5.844
1616.80,5.83
1617.00,5.822
1617.20,5.864
1617.40,5.87
1617.60,5.856
1617.80,5.782
1618.00,5.82
1618.20,5.872
1618.40,5.844
1618.60,5.822
1618.80,5.858
1619.00,5.79
1619.20,5.82
1619.40,5.814
1619.60,5.85
1619.80,5.844
1620.00,5.848
1620.20,5.858
1620.40,5.842
1620.60,5.826
1620.80,5.8
1621.00,5.864
1621.20,5.828
1621.40,5.82
1621.60,5.85
1621.80,5.87
1622.00,5.8
1622.20,5.786
1622.40,5.814
1622.60,5.866
1622.80,5.828
1623.00,5.784
1623.20,5.848
1623.40,5.852
1623.60,5.826
1623.80,5.814
1624.00,5.826
1624.20,5.866
1624.40,5.822
1624.60,5.806
1624.80,5.848
1625.00,5.844
1625.20,5.86
1625.40,5.836
1625.60,5.794
1625.80,5.822
1626.00,5.798
1626.20,5.828
1626.40,5.804
1626.60,5.878
1626.80,5.814
1627.00,5.86
1627.20,5.938
1627.40,5.764
1627.60,5.812
1627.80,5.834
1628.00,5.804
1628.20,5.816
1628.40,5.892
1628.60,5.808
1628.80,5.874
1629.00,5.79
1629.20,5.816
1629.40,5.83
1629.60,5.866
1629.80,5.784
1630.00,5.812
1630.20,5.858
1630.40,5.848
1630.60,5.822
1630.80,5.828
1631.00,5.83
1631.20,5.83
1631.40,5.86
1631.60,5.826
1631.80,5.804
1632.00,5.886
1632.20,5.82
1632.40,5.836
1632.60,5.844
1632.80,5.798
1633.00,5.836
1633.20,5.826
1633.40,5.85
1633.60,5.814
1633.80,5.878
1634.00,5.804
1634.20,5.838
1634.40,5.814
1634.60,5.786
1634.80,5.874
1635.00,5.834
1635.20,5.848
1635.40,5.866
1635.60,5.782
1635.80,5.808
1636.00,5.87
1636.20,5.804
1636.40,5.812
1636.60,5.894
1636.80,5.784
1637.00,5.834
1637.20,5.816
1637.40,5.848
1637.60,5.828
1637.80,5.836
1638.00,5.814
1638.20,5.882
1638.40,5.794
1638.60,5.836
1638.80,5.822
1639.00,5.87
1639.20,5.836
1639.40,5.786
1639.60,5.836
1639.80,5.828
1640.00,5.828
1640.20,5.842
1640.40,5.828
1640.60,5.822
1640.80,5.848
1641.00,5.822
1641.20,5.852
1641.40,5.804
1641.60,5.848
1641.80,5.828
1642.00,5.808
1642.20,5.822
1642.40,5.836
1642.60,5.826
1642.80,5.838
1643.00,5.872
1643.20,5.806
1643.40,5.844
1643.60,5.828
1643.80,5.826
1644.00,5.842
1644.20,5.816
1644.40,5.834
1644.60,5.86
1644.80,5.83
1645.00,5.826
1645.20,5.94
1645.40,5.748
1645.60,5.88
1645.80,5.826
1646.00,5.812
1646.20,5.808
1646.40,5.866
1646.60,5.82
1646.80,5.86
1647.00,5.836
1647.20,5.864
1647.40,5.822
1647.60,5.856
1647.80,5.794
1648.00,5.804
1648.20,5.856
1648.40,5.826
1648.60,5.826
1648.80,5.858
1649.00,5.852
1649.20,5.8
1649.40,5.87
1649.60,5.834
1649.80,5.784
1650.00,5.878
1650.20,5.836
1650.40,5.852
1650.60,5.82
1650.80,5.836
1651.00,5.892
1651.20,5.842
1651.40,5.826
1651.60,5.816
1651.80,5.83
1652.00,5.858
1652.20,5.858
1652.40,5.756
1652.60,5.882
1652.80,5.86
1653.00,5.826
1653.20,5.842
1653.40,5.838
1653.60,5.794
1653.80,5.82
1654.00,5.858
1654.20,5.806
1654.40,5.816
1654.60,5.826
1654.80,5.83
1655.00,5.822
1655.20,5.826
1655.40,5.85
1655.60,5.816
1655.80,5.838
1656.00,5.826
1656.20,5.836
1656.40,5.826
1656.60,5.872
1656.80,5.826
1657.00,5.784
1657.20,5.784
1657.40,5.87
1657.60,5.87
1657.80,5.79
1658.00,5.826
1658.20,5.866
1658.40,5.834
1658.60,5.828
1658.80,5.838
1659.00,5.804
1659.20,5.836
1659.40,5.874
1659.60,5.83
1659.80,5.76
1660.00,5.864
1660.20,5.858
1660.40,5.814
1660.60,5.86
1660.80,5.808
1661.00,5.86
1661.20,5.822
1661.40,5.83
1661.60,5.882
1661.80,5.858
1662.00,5.82
1662.20,5.822
1662.40,5.856
1662.60,5.822
1662.80,5.826
1663.00,5.836
1663.20,5.936
1663.40,5.772
1663.60,5.828
1663.80,5.834
1664.00,5.826
1664.20,5.784
1664.40,5.842
1664.60,5.838
1664.80,5.826
1665.00,5.86
1665.20,5.852
1665.40,5.814
1665.60,5.826
1665.80,5.866
1666.00,5.838
1666.20,5.806
1666.40,5.872
1666.60,5.786
1666.80,5.86
1667.00,5.814
1667.20,5.812
1667.40,5.888
1667.60,5.784
1667.80,5.864
1668.00,5.812
1668.20,5.804
1668.40,5.848
1668.60,5.844
1668.80,5.874
1669.00,5.822
1669.20,5.808
1669.40,5.86
1669.60,5.848
1669.80,5.786
1670.00,5.842
1670.20,5.842
1670.40,5.822
1670.60,5.882
1670.80,5.836
1671.00,5.842
1671.20,5.792
1671.40,5.826
1671.60,5.804
1671.80,5.85
1672.00,5.816
1672.20,5.804
1672.40,5.85
1672.60,5.798
1672.80,5.848
1673.00,5.792
1673.20,5.838
1673.40,5.798
1673.60,5.822
1673.80,5.806
1674.00,5.894
1674.20,5.848
1674.40,5.848
1674.60,5.816
1674.80,5.826
1675.00,5.822
1675.20,5.866
1675.40,5.842
1675.60,5.764
1675.80,5.834
1676.00,5.864
1676.20,5.864
1676.40,5.836
1676.60,5.828
1676.80,5.83
1677.00,5.858
1677.20,5.806
1677.40,5.806
1677.60,5.804
1677.80,5.812
1678.00,5.896
1678.20,5.864
1678.40,5.816
1678.60,5.806
1678.80,5.852
1679.00,5.852
1679.20,5.85
1679.40,5.83
1679.60,5.87
1679.80,5.786
1680.00,5.82
1680.20,5.892
1680.40,5.83
1680.60,5.816
1680.80,5.844
1681.00,5.808
1681.20,5.952
1681.40,5.732
1681.60,5.826
1681.80,5.82
1682.00,5.888
1682.20,5.82
1682.40,5.828
1682.60,5.86
1682.80,5.79
1683.00,5.826
1683.20,5.848
1683.40,5.848
1683.60,5.828
1683.80,5.838
1684.00,5.874
1684.20,5.822
1684.40,5.804
1684.60,5.828
1684.80,5.838
1685.00,5.848
1685.20,5.812
1685.40,5.806
1685.60,5.888
1685.80,5.826
1686.00,5.816
1686.20,5.826
1686.40,5.874
1686.60,5.822
1686.80,5.838
1687.00,5.814
1687.20,5.85
1687.40,5.856
1687.60,5.814
1687.80,5.86
1688.00,5.82
1688.20,5.834
1688.40,5.874
1688.60,5.844
1688.80,5.794
1689.00,5.828
1689.20,5.816
1689.40,5.804
1689.60,5.844
1689.80,5.778
1690.00,5.858
1690.20,5.828
1690.40,5.844
1690.60,5.872
1690.80,5.826
1691.00,5.826
1691.20,5.866
1691.40,5.816
1691.60,5.778
1691.80,5.816
1692.00,5.836
1692.20,5.836
1692.40,5.826
1692.60,5.866
1692.80,5.838
1693.00,5.848
1693.20,5.816
1693.40,5.816
1693.60,5.804
1693.80,5.86
1694.00,5.82
1694.20,5.83
1694.40,5.782
1694.60,5.86
1694.80,5.852
1695.00,5.828
1695.20,5.83
1695.40,5.826
1695.60,5.836
1695.80,5.844
1696.00,5.814
1696.20,5.838
1696.40,5.82
1696.60,5.874
1696.80,5.834
1697.00,5.814
1697.20,5.844
1697.40,5.856
1697.60,5.808
1697.80,5.838
1698.00,5.86
1698.20,5.784
1698.40,5.844
1698.60,5.88
1698.80,5.778
1699.00,5.86
1699.20,5.916
1699.40,5.724
1699.60,5.82
1699.80,5.874
1700.00,5.836
1700.20,5.834
1700.40,5.842
1700.60,5.86
1700.80,5.786
1701.00,5.794
1701.20,5.864
1701.40,5.82
1701.60,5.806
1701.80,5.85
1702.00,5.842
1702.20,5.826
1702.40,5.826
1702.60,5.866
1702.80,5.844
1703.00,5.806
1703.20,5.808
1703.40,5.874
1703.60,5.878
1703.80,5.844
1704.00,5.808
1704.20,5.864
1704.40,5.806
1704.60,5.826
1704.80,5.816
1705.00,5.848
1705.20,5.798
1705.40,5.848
1705.60,5.83
1705.80,5.8
1706.00,5.83
1706.20,5.844
1706.40,5.848
1706.60,5.842
1706.80,5.856
1707.00,5.83
1707.20,5.83
1707.40,5.786
1707.60,5.83
1707.80,5.896
1708.00,5.808
1708.20,5.838
1708.40,5.816
1708.60,5.826
1708.80,5.88
1709.00,5.826
1709.20,5.83
1709.40,5.858
1709.60,5.804
1709.80,5.858
1710.00,5.836
1710.20,5.814
1710.40,5.842
1710.60,5.804
1710.80,5.852
1711.00,5.82
1711.20,5.872
1711.40,5.852
1711.60,5.826
1711.80,5.844
1712.00,5.806
1712.20,5.87
1712.40,5.814
1712.60,5.79
1712.80,5.806
1713.00,5.852
1713.20,5.83
1713.40,5.842
1713.60,5.886
1713.80,5.844
1714.00,5.834
1714.20,5.814
1714.40,5.858
1714.60,5.83
1714.80,5.874
1715.00,5.834
1715.20,5.82
1715.40,5.838
1715.60,5.82
1715.80,5.804
1716.00,5.86
1716.20,5.874
1716.40,5.806
1716.60,5.844
1716.80,5.82
1717.00,5.83
1717.20,5.916
1717.40,5.746
1717.60,5.848
1717.80,5.856
1718.00,5.834
1718.20,5.858
1718.40,5.826
1718.60,5.856
1718.80,5.778
1719.00,5.856
1719.20,5.844
1719.40,5.836
1719.60,5.812
1719.80,5.848
1720.00,5.83
1720.20,5.792
1720.40,5.828
1720.60,5.842
1720.80,5.87
1721.00,5.798
1721.20,5.85
1721.40,5.86
1721.60,5.838
1721.80,5.814
1722.00,5.852
1722.20,5.822
1722.40,5.852
1722.60,5.798
1722.80,5.786
1723.00,5.882
1723.20,5.79
1723.40,5.842
1723.60,5.822
1723.80,5.848
1724.00,5.814
1724.20,5.836
1724.40,5.82
1724.60,5.814
1724.80,5.844
1725.00,5.852
1725.20,5.838
1725.40,5.806
1725.60,5.844
1725.80,5.858
1726.00,5.844
1726.20,5.82
1726.40,5.812
1726.60,5.844
1726.80,5.85
1727.00,5.874
1727.20,5.83
1727.40,5.8
1727.60,5.826
1727.80,5.814
1728.00,5.878
1728.20,5.792
1728.40,5.856
1728.60,5.836
1728.80,5.848
1729.00,5.82
1729.20,5.826
1729.40,5.83
1729.60,5.836
1729.80,5.798
1730.00,5.864
1730.20,5.852
1730.40,5.82
1730.60,5.798
1730.80,5.874
1731.00,5.882
1731.20,5.784
1731.40,5.864
1731.60,5.856
1731.80,5.834
1732.00,5.822
1732.20,5.808
1732.40,5.838
1732.60,5.826
1732.80,5.87
1733.00,5.838
1733.20,5.856
1733.40,5.822
1733.60,5.812
1733.80,5.816
1734.00,5.86
1734.20,5.798
1734.40,5.86
1734.60,5.826
1734.80,5.814
1735.00,5.836
1735.20,5.916
1735.40,5.776
1735.60,5.816
1735.80,5.826
1736.00,5.86
1736.20,5.814
1736.40,5.826
1736.60,5.834
1736.80,5.8
1737.00,5.858
1737.20,5.852
1737.40,5.856
1737.60,5.826
1737.80,5.826
1738.00,5.816
1738.20,5.85
1738.40,5.826
1738.60,5.87
1738.80,5.816
1739.00,5.828
1739.20,5.85
1739.40,5.784
1739.60,5.838
1739.80,5.842
1740.00,5.834
1740.20,5.842
1740.40,5.778
1740.60,5.848
1740.80,5.838
1741.00,5.866
1741.20,5.782
1741.40,5.826
1741.60,5.828
1741.80,5.842
1742.00,5.834
1742.20,5.836
1742.40,5.808
1742.60,5.842
1742.80,5.83
1743.00,5.842
1743.20,5.844
1743.40,5.786
1743.60,5.866
1743.80,5.822
1744.00,5.826
1744.20,5.784
1744.40,5.878
1744.60,5.826
1744.80,5.872
1745.00,5.828
1745.20,5.822
1745.40,5.782
1745.60,5.866
1745.80,5.844
1746.00,5.836
1746.20,5.812
1746.40,5.826
1746.60,5.85
1746.80,5.828
1747.00,5.858
1747.20,5.808
1747.40,5.782
1747.60,5.836
1747.80,5.836
1748.00,5.848
1748.20,5.87
1748.40,5.836
1748.60,5.822
1748.80,5.83
1749.00,5.83
1749.20,5.778
1749.40,5.892
1749.60,5.814
1749.80,5.864
1750.00,5.778
1750.20,5.88
1750.40,5.856
1750.60,5.866
1750.80,5.784
1751.00,5.85
1751.20,5.812
1751.40,5.838
1751.60,5.828
1751.80,5.842
1752.00,5.86
1752.20,5.85
1752.40,5.88
1752.60,5.806
1752.80,5.848
1753.00,5.784
1753.20,5.936
1753.40,5.728
1753.60,5.872
1753.80,5.814
1754.00,5.848
1754.20,5.826
1754.40,5.836
1754.60,5.814
1754.80,5.828
1755.00,5.828
1755.20,5.83
1755.40,5.874
1755.60,5.806
1755.80,5.826
1756.00,5.844
1756.20,5.804
1756.40,5.844
1756.60,5.814
1756.80,5.826
1757.00,5.826
1757.20,5.844
1757.40,5.848
1757.60,5.794
1757.80,5.896
1758.00,5.782
1758.20,5.834
1758.40,5.808
1758.60,5.87
1758.80,5.826
1759.00,5.784
1759.20,5.872
1759.40,5.828
1759.60,5.798
1759.80,5.86
1760.00,5.822
1760.20,5.836
1760.40,5.83
1760.60,5.878
1760.80,5.786
1761.00,5.864
1761.20,5.826
1761.40,5.838
1761.60,5.822
1761.80,5.826
1762.00,5.87
1762.20,5.87
1762.40,5.804
1762.60,5.836
1762.80,5.792
1763.00,5.822
1763.20,5.856
1763.40,5.858
1763.60,5.848
1763.80,5.85
1764.00,5.828
1764.20,5.838
1764.40,5.834
1764.60,5.822
1764.80,5.8
1765.00,5.858
1765.20,5.842
1765.40,5.828
1765.60,5.864
1765.80,5.834
1766.00,5.842
1766.20,5.858
1766.40,5.808
1766.60,5.804
1766.80,5.86
1767.00,5.816
1767.20,5.816
1767.40,5.826
1767.60,5.852
1767.80,5.82
1768.00,5.86
1768.20,5.852
1768.40,5.806
1768.60,5.826
1768.80,5.864
1769.00,5.844
1769.20,5.836
1769.40,5.814
1769.60,5.79
1769.80,5.856
1770.00,5.828
1770.20,5.852
1770.40,5.856
1770.60,5.792
1770.80,5.882
1771.00,5.812
1771.20,5.902
1771.40,5.76
1771.60,5.814
1771.80,5.848
1772.00,5.804
1772.20,5.858
1772.40,5.852
1772.60,5.836
1772.80,5.806
1773.00,5.826
1773.20,5.866
1773.40,5.836
1773.60,5.834
1773.80,5.838
1774.00,5.866
1774.20,5.778
1774.40,5.826
1774.60,5.836
1774.80,5.874
1775.00,5.812
1775.20,5.87
1775.40,5.83
1775.60,5.826
1775.80,5.804
1776.00,5.836
1776.20,5.852
1776.40,5.826
1776.60,5.822
1776.80,5.852
1777.00,5.864
1777.20,5.798
1777.40,5.82
1777.60,5.828
1777.80,5.83
1778.00,5.838
1778.20,5.82
1778.40,5.808
1778.60,5.874
1778.80,5.812
1779.00,5.838
1779.20,5.848
1779.40,5.816
1779.60,5.88
1779.80,5.808
1780.00,5.852
1780.20,5.83
1780.40,5.82
1780.60,5.856
1780.80,5.852
1781.00,5.82
1781.20,5.834
1781.40,5.86
1781.60,5.87
1781.80,5.784
1782.00,5.808
1782.20,5.814
1782.40,5.86
1782.60,5.86
1782.80,5.812
1783.00,5.848
1783.20,5.804
1783.40,5.828
1783.60,5.842
1783.80,5.834
1784.00,5.856
1784.20,5.798
1784.40,5.834
1784.60,5.842
1784.80,5.85
1785.00,5.798
1785.20,5.842
1785.40,5.848
1785.60,5.82
1785.80,5.838
1786.00,5.826
1786.20,5.822
1786.40,5.848
1786.60,5.85
1786.80,5.836
1787.00,5.852
1787.20,5.794
1787.40,5.83
1787.60,5.794
1787.80,5.836
1788.00,5.826
1788.20,5.864
1788.40,5.838
1788.60,5.85
1788.80,5.828
1789.00,5.842
1789.20,5.894
1789.40,5.768
1789.60,5.822
1789.80,5.826
1790.00,5.85
1790.20,5.838
1790.40,5.834
1790.60,5.86
1790.80,5.856
1791.00,5.804
1791.20,5.826
1791.40,5.812
1791.60,5.814
1791.80,5.848
1792.20,5.844
1792.40,5.814
1792.60,5.856
1792.80,5.842
1793.00,5.8
1793.20,5.836
1793.40,5.836
1793.60,5.826
1793.80,5.836
1794.00,5.874
1794.20,5.782
1794.40,5.87
1794.60,5.822
1794.80,5.85
1795.00,5.82
1795.20,5.828
1795.40,5.852
1795.60,5.826
1795.80,5.848
1796.00,5.83
1796.20,5.778
1796.40,5.826
1796.60,5.866
1796.80,5.836
1797.00,5.88
1797.20,5.858
1797.40,5.826
1797.60,5.838
1797.80,5.828
1798.00,5.852
1798.20,5.858
1798.40,5.838
1798.60,5.8
1798.80,5.866
1799.00,5.83
1799.20,5.798
1799.40,5.852
1799.60,5.826
1799.80,5.826
1800.00,5.794
1800.20,5.9
1800.40,5.812
1800.60,5.826
1800.80,5.87
1801.00,5.842
1801.20,5.838
1801.40,5.852
1801.60,5.812
1801.80,5.826
1802.00,5.816
1802.20,5.812
1802.40,5.872
1802.60,5.842
1802.80,5.83
1803.00,5.812
1803.20,5.812
1803.40,5.88
1803.60,5.844
1803.80,5.806
1804.00,5.844
1804.20,5.808
1804.40,5.918
1804.60,5.768
1804.80,5.768
1805.00,5.856
1805.20,5.794
1805.40,5.814
1805.60,5.864
1805.80,5.812
1806.00,5.806
1806.20,5.834
1806.40,5.856
1806.60,5.828
1806.80,5.826
1807.00,5.828
1807.20,5.86
1807.40,5.858
1807.60,5.826
1807.80,5.814
1808.00,5.82
1808.20,5.816
1808.40,5.834
1808.60,5.83
1808.80,5.816
1809.00,5.834
1809.20,5.828
1809.40,5.812
1809.60,5.838
1809.80,5.844
1810.00,5.882
1810.20,5.808
1810.40,5.804
1810.60,5.842
1810.80,5.826
1811.00,5.86
1811.20,5.842
1811.40,5.83
1811.60,5.852
1811.80,5.82
1812.00,5.842
1812.20,5.828
1812.40,5.848
1812.60,5.806
1812.80,5.826
1813.00,5.804
1813.20,5.86
1813.40,5.864
1813.60,5.814
1813.80,5.8
1814.00,5.858
1814.20,5.814
1814.40,5.792
1814.60,5.844
1814.80,5.83
1815.00,5.852
1815.20,5.792
1815.40,5.856
1815.60,5.812
1815.80,5.85
1816.00,5.784
1816.20,5.864
1816.40,5.812
1816.60,5.808
1816.80,5.834
1817.00,5.816
1817.20,5.864
1817.40,5.864
1817.60,5.85
1817.80,5.8
1818.00,5.83
1818.20,5.85
1818.40,5.864
1818.60,5.856
1818.80,5.82
1819.00,5.83
1819.20,5.764
1819.40,5.878
1819.60,5.856
1819.80,5.794
1820.00,5.842
1820.20,5.866
1820.40,5.784
1820.60,5.82
1820.80,5.87
1821.00,5.768
1821.20,5.866
1821.40,5.814
1821.60,5.856
1821.80,5.812
1822.00,5.86
1822.20,5.808
1822.40,5.864
1822.60,5.772
1822.80,5.858
1823.00,5.86
1823.20,5.826
1823.40,5.806
1823.60,5.806
1823.80,5.878
1824.00,5.828
1824.20,5.844
1824.40,5.828
1824.60,5.836
1824.80,5.822
1825.00,5.856
1825.20,5.822
1825.40,5.892
1825.60,5.812
1825.80,5.852
1826.00,5.794
1826.20,5.826
1826.40,5.874
1826.60,5.848
1826.80,5.838
1827.00,5.814
1827.20,5.834
1827.40,5.85
1827.60,5.77
1827.80,5.842
1828.00,5.878
1828.20,5.828
1828.40,5.858
1828.60,5.79
1828.80,5.858
1829.00,5.826
1829.20,5.826
1829.40,5.836
1829.60,5.828
1829.80,5.83
1830.00,5.852
1830.20,5.838
1830.40,5.804
1830.60,5.86
1830.80,5.804
1831.00,5.864
1831.20,5.814
1831.40,5.858
1831.60,5.82
1831.80,5.82
1832.00,5.834
1832.20,5.798
1832.40,5.874
1832.60,5.838
1832.80,5.816
1833.00,5.864
1833.20,5.822
1833.40,5.866
1833.60,5.848
1833.80,5.792
1834.00,5.822
1834.20,5.856
1834.40,5.794
1834.60,5.858
1834.80,5.848
1835.00,5.856
1835.20,5.776
1835.40,5.844
1835.60,5.828
1835.80,5.874
1836.00,5.828
1836.20,5.852
1836.40,5.86
1836.60,5.836
1836.80,5.894
1837.00,5.918
1837.20,5.85
1837.40,5.904
1837.60,9.042
1837.80,10.67
1838.00,11.884
1838.20,10.848
1838.40,10.398
1838.60,11.862
1838.80,19.264
1839.00,25.096
1839.20,25.294
1839.40,25.346
1839.60,25.256
1839.80,25.28
1840.00,25.308
1840.20,25.304
1840.40,25.758
1840.60,24.838
1840.80,25.312
1841.00,25.356
1841.20,25.28
1841.40,25.296
1841.60,25.286
1841.80,25.278
1842.00,25.302
1842.20,25.332
1842.40,25.258
1842.60,25.318
1842.80,25.312
1843.00,25.244
1843.20,25.288
1843.40,25.42
1843.60,25.26
1843.80,25.312
1844.00,25.278
1844.20,25.25
1844.40,25.344
1844.60,25.256
1844.80,25.34
1845.00,25.312
1845.20,25.272
1845.40,25.264
1845.60,25.294
1845.80,25.236
1846.00,25.31
1846.20,25.33
1846.40,25.304
1846.60,25.3
1846.80,25.312
1847.00,25.206
1847.20,25.354
1847.40,25.22
1847.60,25.674
1847.80,25.244
1848.00,25.338
1848.20,25.264
1848.40,25.264
1848.60,25.272
1848.80,25.318
1849.00,25.392
1849.20,25.256
1849.40,25.294
1849.60,25.272
1849.80,25.334
1850.00,25.258
1850.20,25.282
1850.40,25.324
1850.60,25.36
1850.80,25.286
1851.00,25.302
1851.20,25.258
1851.40,25.322
1851.60,25.382
1851.80,25.274
1852.00,25.204
1852.20,25.288
1852.40,25.33
1852.60,25.278
1852.80,25.33
1853.00,25.332
1853.20,25.316
1853.40,25.3
1853.60,25.244
1853.80,25.31
1854.00,25.304
1854.20,25.226
1854.40,25.39
1854.60,25.258
1854.80,25.296
1855.00,25.27
1855.20,25.326
1855.40,25.23
1855.60,25.292
1855.80,25.404
1856.00,25.294
1856.20,25.266
1856.40,25.26
1856.60,25.286
1856.80,25.318
1857.00,25.294
1857.20,25.53
1857.40,25.348
1857.60,25.248
1857.80,25.278
1858.00,25.278
1858.20,25.296
1858.40,25.736
1858.60,24.89
1858.80,25.318
1859.00,25.23
1859.20,25.256
1859.40,25.322
1859.60,25.26
1859.80,25.436
1860.00,25.25
1860.20,25.318
1860.40,25.25
1860.60,25.318
1860.80,25.258
1861.00,25.344
1861.20,25.348
1861.40,25.3
1861.60,25.31
1861.80,25.296
1862.00,25.304
1862.20,25.282
1862.40,25.33
1862.60,25.392
1862.80,25.302
1863.00,25.3
1863.20,25.288
1863.40,25.292
1863.60,25.294
1863.80,25.27
1864.00,25.362
1864.20,25.27
1864.40,25.266
1864.60,25.272
1864.80,25.316
1865.00,25.28
1865.20,25.274
1865.40,25.382
1865.60,25.322
1865.80,25.274
1866.00,25.308
1866.20,25.266
1866.40,25.296
1866.60,25.278
1866.80,25.516
1867.00,25.376
1867.20,25.242
1867.40,25.282
1867.60,25.272
1867.80,25.26
1868.00,25.488
1868.20,25.208
1868.40,25.326
1868.60,25.274
1868.80,25.352
1869.00,25.304
1869.20,25.272
1869.40,25.39
1869.60,25.27
1869.80,25.3
1870.00,25.286
1870.20,25.296
1870.40,25.318
1870.60,25.27
1870.80,25.356
1871.00,25.292
1871.20,25.318
1871.40,25.322
1871.60,25.286
1871.80,25.304
1872.00,25.288
1872.20,25.428
1872.40,25.248
1872.60,25.362
1872.80,25.286
1873.00,25.27
1873.20,25.308
1873.40,25.256
1873.60,25.376
1873.80,25.28
1874.00,25.344
1874.20,25.302
1874.40,25.206
1874.60,25.316
1874.80,25.312
1875.00,25.354
1875.20,25.28
1875.40,25.308
1875.60,25.354
1875.80,25.292
1876.00,25.294
1876.20,25.758
1876.40,25.604
1876.60,24.794
1876.80,25.296
1877.00,25.226
1877.20,25.322
1877.40,25.304
1877.60,25.37
1877.80,25.368
1878.00,25.258
1878.20,25.266
1878.40,25.33
1878.60,25.242
1878.80,25.242
1879.00,25.378
1879.20,25.294
1879.40,25.3
1879.60,25.334
1879.80,25.27
1880.00,25.282
1880.20,25.304
1880.40,25.378
1880.60,25.258
1880.80,25.258
1881.00,25.286
1881.20,25.282
1881.40,25.292
1881.60,25.322
1881.80,25.326
1882.00,25.266
1882.20,25.316
1882.40,25.326
1882.60,25.282
1882.80,25.288
1883.00,25.352
1883.20,25.33
1883.40,25.278
1883.60,25.312
1883.80,25.252
1884.00,25.348
1884.20,25.274
1884.40,25.42
1884.60,25.214
1884.80,25.346
1885.00,25.226
1885.20,25.31
1885.40,25.286
1885.60,25.324
1885.80,25.608
1886.00,25.3
1886.20,25.27
1886.40,25.354
1886.60,25.294
1886.80,25.248
1887.00,25.31
1887.20,25.398
1887.40,25.242
1887.60,25.26
1887.80,25.346
1888.00,25.348
1888.20,25.234
1888.40,25.308
1888.60,25.36
1888.80,25.272
1889.00,25.296
1889.20,25.318
1889.40,25.272
1889.60,25.318
1889.80,25.3
1890.00,25.348
1890.20,25.366
1890.40,25.252
1890.60,25.316
1890.80,25.252
1891.00,25.354
1891.20,25.308
1891.40,25.33
1891.60,25.288
1891.80,25.28
1892.00,25.278
1892.20,25.286
1892.40,25.304
1892.60,25.444
1892.80,25.234
1893.00,25.362
1893.20,25.23
1893.40,25.31
1893.60,25.304
1893.80,25.256
1894.00,25.362
1894.20,25.304
1894.40,25.784
1894.60,24.79
1894.80,25.28
1895.00,25.288
1895.20,25.308
1895.40,25.56
1895.60,25.348
1895.80,25.338
1896.00,25.248
1896.20,25.292
1896.40,25.302
1896.60,25.26
1896.80,25.42
1897.00,25.242
1897.20,25.334
1897.40,25.264
1897.60,25.3
1897.80,25.308
1898.00,25.322
1898.20,25.326
1898.40,25.322
1898.60,25.326
1898.80,25.33
1899.00,25.27
1899.20,25.302
1899.40,25.378
1899.60,25.282
1899.80,25.296
1900.00,25.348
1900.20,25.27
1900.40,25.292
1900.60,25.302
1900.80,25.414
1901.00,25.288
1901.20,25.334
1901.40,25.27
1901.60,25.34
1901.80,25.248
1902.00,25.248
1902.20,25.376
1902.40,25.33
1902.60,25.292
1902.80,25.318
1903.00,25.294
1903.20,25.294
1903.40,25.282
1903.60,25.39
1903.80,25.292
1904.00,25.248
1904.20,25.288
1904.40,25.326
1904.60,25.304
1904.80,25.292
1905.00,25.69
1905.20,25.26
1905.40,25.264
1905.60,25.28
1905.80,25.318
1906.00,25.288
1906.20,25.3
1906.40,25.374
1906.60,25.274
1906.80,25.34
1907.00,25.296
1907.20,25.31
1907.40,25.272
1907.60,25.326
1907.80,25.302
1908.00,25.294
1908.20,25.34
1908.40,25.258
1908.60,25.338
1908.80,25.226
1909.00,25.448
1909.20,25.208
1909.40,25.33
1909.60,25.318
1909.80,25.294
1910.00,25.278
1910.20,25.256
1910.40,25.376
1910.60,25.378
1910.80,25.242
1911.00,25.288
1911.20,25.288
1911.40,25.344
1911.60,25.282
1911.80,25.37
1912.00,25.334
1912.20,25.26
1912.40,25.758
1912.60,24.846
1912.80,25.258
1913.00,25.346
1913.20,25.346
1913.40,25.334
1913.60,25.26
1913.80,25.296
1914.00,25.326
1914.20,25.28
1914.40,25.326
1914.60,25.554
1914.80,25.324
1915.00,25.294
1915.20,25.33
1915.40,25.308
1915.60,25.26
1915.80,25.33
1916.00,25.258
1916.20,25.296
1916.40,25.278
1916.60,25.26
1916.80,25.288
1917.00,25.238
1917.20,25.414
1917.40,25.238
1917.60,25.346
1917.80,25.248
1918.00,25.288
1918.20,25.3
1918.40,25.326
1918.60,25.334
1918.80,25.318
1919.00,25.308
1919.20,25.282
1919.40,25.326
1919.60,25.264
1919.80,25.334
1920.00,25.37
1920.20,25.28
1920.40,25.318
1920.60,25.312
1920.80,25.28
1921.00,25.312
1921.20,25.26
1921.40,25.404
1921.60,25.302
1921.80,25.234
1922.00,25.36
1922.20,25.252
1922.40,25.294
1922.60,25.23
1922.80,25.384
1923.00,25.308
1923.20,25.272
1923.40,25.264
1923.60,25.256
1923.80,25.216
1924.00,25.51
1924.20,25.266
1924.40,25.23
1924.60,25.248
1924.80,25.236
1925.00,25.288
1925.20,25.226
1925.40,25.378
1925.60,25.242
1925.80,25.296
1926.00,25.302
1926.20,25.324
1926.40,25.248
1926.60,25.3
1926.80,25.36
1927.00,25.316
1927.20,25.292
1927.40,25.292
1927.60,25.3
1927.80,25.272
1928.00,25.362
1928.20,25.362
1928.40,25.292
1928.60,25.272
1928.80,25.308
1929.00,25.288
1929.20,25.31
1929.40,25.34
1929.60,25.338
1929.80,25.302
1930.00,25.226
1930.20,25.392
1930.40,25.692
1930.60,24.846
1930.80,25.296
1931.00,25.44
1931.20,25.302
1931.40,25.242
1931.60,25.324
1931.80,25.3
1932.00,25.318
1932.20,25.406
1932.40,25.248
1932.60,25.26
1932.80,25.292
1933.00,25.332
1933.20,25.296
1933.40,25.308
1933.60,25.696
1933.80,25.192
1934.00,25.316
1934.20,25.272
1934.40,25.286
1934.60,25.252
1934.80,25.312
1935.00,25.308
1935.20,25.326
1935.40,25.326
1935.60,25.294
1935.80,25.288
1936.00,25.28
1936.20,25.286
1936.40,25.464
1936.60,25.234
1936.80,25.324
1937.00,25.286
1937.20,25.3
1937.40,25.294
1937.60,25.258
1937.80,25.392
1938.00,25.28
1938.20,25.282
1938.40,25.286
1938.60,25.3
1938.80,25.258
1939.00,25.294
1939.20,25.366
1939.40,25.316
1939.60,25.214
1939.80,25.322
1940.00,25.3
1940.20,25.31
1940.40,25.39
1940.60,25.236
1940.80,25.248
1941.00,25.354
1941.20,25.274
1941.40,25.274
1941.60,25.3
1941.80,25.39
1942.00,25.344
1942.20,25.244
1942.40,25.33
1942.60,25.266
1942.80,25.36
1943.00,25.26
1943.20,25.514
1943.40,25.376
1943.60,25.258
1943.80,25.282
1944.00,25.258
1944.20,25.33
1944.40,25.346
1944.60,25.374
1944.80,25.238
1945.00,25.286
1945.20,25.288
1945.40,25.28
1945.60,25.334
1945.80,25.252
1946.00,25.404
1946.20,25.312
1946.40,25.286
1946.60,25.338
1946.80,25.272
1947.00,25.316
1947.20,25.312
1947.40,25.346
1947.60,25.25
1947.80,25.324
1948.00,25.278
1948.20,25.27
1948.40,25.762
1948.60,24.898
1948.80,25.302
1949.00,25.302
1949.20,25.324
1949.40,25.288
1949.60,25.292
1949.80,25.248
1950.00,25.428
1950.20,25.296
1950.40,25.362
1950.60,25.272
1950.80,25.316
1951.00,25.248
1951.20,25.28
1951.40,25.338
1951.60,25.384
1951.80,25.236
1952.00,25.27
1952.20,25.378
1952.40,25.236
1952.60,25.374
1952.80,25.574
1953.00,25.248
1953.20,25.292
1953.40,25.312
1953.60,25.252
1953.80,25.288
1954.00,25.288
1954.20,25.382
1954.40,25.274
1954.60,25.272
1954.80,25.304
1955.00,25.368
1955.20,25.27
1955.40,25.236
1955.60,25.374
1955.80,25.312
1956.00,25.326
1956.20,25.292
1956.40,25.272
1956.60,25.292
1956.80,25.404
1957.00,25.222
1957.20,25.302
1957.40,25.286
1957.60,25.308
1957.80,25.292
1958.00,25.322
1958.20,25.376
1958.40,25.326
1958.60,25.3
1958.80,25.266
1959.00,25.288
1959.20,25.278
1959.40,25.294
1959.60,25.406
1959.80,25.256
1960.00,25.348
1960.20,25.31
1960.40,25.304
1960.60,25.272
1960.80,25.286
1961.00,25.392
1961.20,25.274
1961.40,25.316
1961.60,25.258
1961.80,25.334
1962.00,25.272
1962.20,25.338
1962.40,25.58
1962.60,25.338
1962.80,25.282
1963.00,25.264
1963.20,25.344
1963.40,25.272
1963.60,25.294
1963.80,25.322
1964.00,25.324
1964.20,25.33
1964.40,25.326
1964.60,25.25
1964.80,25.354
1965.00,25.362
1965.20,25.266
1965.40,25.322
1965.60,25.28
1965.80,25.316
1966.00,25.282
1966.20,25.292
1966.40,25.822
1966.60,24.926
1966.80,25.222
1967.00,25.33
1967.20,25.264
1967.40,25.302
1967.60,25.334
1967.80,25.334
1968.00,25.344
1968.20,25.318
1968.40,25.3
1968.60,25.286
1968.80,25.344
1969.00,25.236
1969.20,25.418
1969.40,25.264
1969.60,25.322
1969.80,25.34
1970.00,25.278
1970.20,25.266
1970.40,25.346
1970.60,25.334
1970.80,25.304
1971.00,25.244
1971.20,25.37
1971.40,25.256
1971.60,25.3
1971.80,25.316
1972.00,25.508
1972.20,25.288
1972.40,25.302
1972.60,25.316
1972.80,25.266
1973.00,25.356
1973.20,25.37
1973.40,25.302
1973.60,25.282
1973.80,25.308
1974.00,25.312
1974.20,25.244
1974.40,25.344
1974.60,25.366
1974.80,25.316
1975.00,25.256
1975.20,25.382
1975.40,25.278
1975.60,25.266
1975.80,25.286
1976.00,25.338
1976.20,25.294
1976.40,25.316
1976.60,25.34
1976.80,25.256
1977.00,25.324
1977.20,25.248
1977.40,25.33
1977.60,25.344
1977.80,25.236
1978.00,25.324
1978.20,25.27
1978.40,25.332
1978.60,25.292
1978.80,25.322
1979.00,25.296
1979.20,25.238
1979.40,25.318
1979.60,25.308
1979.80,25.3
1980.00,25.344
1980.20,25.344
1980.40,25.294
1980.60,25.3
1980.80,25.312
1981.00,25.266
1981.20,25.308
1981.40,25.696
1981.60,25.142
1981.80,25.308
1982.00,25.286
1982.20,25.26
1982.40,25.312
1982.60,25.334
1982.80,25.346
1983.00,25.352
1983.20,25.244
1983.40,25.352
1983.60,25.26
1983.80,25.296
1984.00,25.292
1984.20,25.338
1984.40,25.778
1984.60,24.812
1984.80,25.346
1985.00,25.258
1985.20,25.31
1985.40,25.302
1985.60,25.39
1985.80,25.304
1986.00,25.264
1986.20,25.322
1986.40,25.34
1986.60,25.296
1986.80,25.292
1987.00,25.332
1987.20,25.36
1987.40,25.222
1987.60,25.282
1987.80,25.348
1988.00,25.292
1988.20,25.352
1988.40,25.308
1988.60,25.312
1988.80,25.242
1989.00,25.352
1989.20,25.244
1989.40,25.324
1989.60,25.428
1989.80,25.266
1990.00,25.242
1990.20,25.31
1990.40,25.348
1990.60,25.252
1990.80,25.312
1991.00,25.626
1991.20,25.288
1991.40,25.27
1991.60,25.326
1991.80,25.344
1992.00,25.288
1992.20,25.286
1992.40,25.362
1992.60,25.296
1992.80,25.27
1993.00,25.266
1993.20,25.296
1993.40,25.332
1993.60,25.258
1993.80,25.418
1994.00,25.242
1994.20,25.312
1994.40,25.318
1994.60,25.27
1994.80,25.312
1995.00,25.288
1995.20,25.362
1995.40,25.37
1995.60,25.266
1995.80,25.26
1996.00,25.286
1996.20,25.256
1996.40,25.374
1996.60,25.244
1996.80,25.3
1997.00,25.322
1997.20,25.322
1997.40,25.274
1997.60,25.324
1997.80,25.426
1998.00,25.264
1998.20,25.304
1998.40,25.346
1998.60,25.368
1998.80,25.226
1999.00,25.324
1999.20,25.374
1999.40,25.334
1999.60,25.31
1999.80,25.296
2000.00,25.28
2000.20,25.338
2000.40,25.308
2000.60,25.488
2000.80,25.33
2001.00,25.33
2001.20,25.25
2001.40,25.308
2001.60,25.352
2001.80,25.252
2002.00,25.444
2002.20,25.234
2002.40,25.762
2002.60,24.896
2002.80,25.274
2003.00,25.288
2003.20,25.294
2003.40,25.376
2003.60,25.274
2003.80,25.292
2004.00,25.286
2004.20,25.318
2004.40,25.28
2004.60,25.382
2004.80,25.318
2005.00,25.258
2005.20,25.334
2005.40,25.312
2005.60,25.278
2005.80,25.304
2006.00,25.42
2006.20,25.28
2006.40,25.272
2006.60,25.25
2006.80,25.194
2007.00,25.378
2007.20,25.28
2007.40,25.366
2007.60,25.294
2007.80,23.592
2008.00,25.3
2008.20,25.34
2008.40,25.244
2008.60,25.286
2008.80,25.308
2009.00,25.26
2009.20,25.308
2009.40,25.274
2009.60,25.292
2009.80,25.326
2010.00,25.318
2010.20,25.616
2010.40,25.222
2010.60,25.28
2010.80,25.322
2011.00,25.326
2011.20,25.272
2011.40,25.324
2011.60,25.352
2011.80,25.34
2012.00,25.288
2012.20,25.256
2012.40,25.322
2012.60,25.282
2012.80,25.214
2013.00,25.322
2013.20,25.334
2013.40,25.304
2013.60,25.288
2013.80,25.292
2014.00,25.272
2014.20,25.464
2014.40,25.27
2014.60,25.318
2014.80,25.304
2015.00,25.17
2015.20,25.352
2015.40,25.36
2015.60,25.354
2015.80,25.338
2016.00,25.288
2016.20,25.316
2016.40,25.28
2016.60,25.326
2016.80,25.258
2017.00,25.42
2017.20,25.282
2017.40,25.33
2017.60,25.28
2017.80,25.264
2018.00,25.308
2018.20,25.292
2018.40,25.346
2018.60,25.356
2018.80,25.258
2019.00,25.294
2019.20,25.356
2019.40,25.258
2019.60,25.312
2019.80,25.566
2020.00,25.234
2020.20,25.356
2020.40,25.722
2020.60,24.848
2020.80,25.344
2021.00,25.308
2021.20,25.36
2021.40,25.28
2021.60,25.274
2021.80,25.324
2022.00,25.352
2022.20,25.266
2022.40,25.356
2022.60,25.288
2022.80,25.326
2023.00,25.274
2023.20,25.282
2023.40,25.248
2023.60,25.338
2023.80,25.316
2024.00,25.282
2024.20,25.304
2024.40,25.39
2024.60,25.258
2024.80,25.302
2025.00,25.316
2025.20,25.354
2025.40,25.312
2025.60,25.316
2025.80,25.302
2026.00,25.31
2026.20,25.324
2026.40,25.236
2026.60,25.432
2026.80,25.26
2027.00,25.292
2027.20,25.296
2027.40,25.258
2027.60,25.348
2027.80,25.258
2028.00,25.39
2028.20,25.288
2028.40,25.332
2028.60,25.27
2028.80,25.278
2029.00,25.324
2029.20,25.458
2029.40,25.406
2029.60,25.236
2029.80,25.31
2030.00,25.334
2030.20,25.296
2030.40,25.316
2030.60,25.406
2030.80,25.248
2031.00,25.322
2031.20,25.316
2031.40,25.296
2031.60,25.252
2031.80,25.344
2032.00,25.362
2032.20,25.332
2032.40,25.318
2032.60,25.198
2032.80,25.368
2033.00,25.312
2033.20,25.26
2033.40,25.388
2033.60,25.288
2033.80,25.244
2034.00,25.388
2034.20,25.266
2034.40,25.236
2034.60,25.356
2034.80,25.382
2035.00,25.27
2035.20,25.308
2035.40,25.332
2035.60,25.334
2035.80,25.248
2036.00,25.366
2036.20,25.312
2036.40,25.324
2036.60,25.302
2036.80,25.296
2037.00,25.36
2037.20,25.304
2037.40,25.374
2037.60,25.294
2037.80,25.168
2038.00,25.282
2038.20,25.286
2038.40,25.74
2038.60,24.874
2038.80,25.72
2039.00,25.146
2039.20,25.272
2039.40,25.34
2039.60,25.282
2039.80,25.37
2040.00,25.304
2040.20,25.352
2040.40,25.288
2040.60,25.37
2040.80,25.266
2041.00,25.322
2041.20,25.288
2041.40,25.264
2041.60,25.36
2041.80,25.312
2042.00,25.362
2042.20,25.234
2042.40,25.25
2042.60,25.324
2042.80,25.286
2043.00,25.448
2043.20,25.31
2043.40,25.316
2043.60,25.258
2043.80,25.316
2044.00,25.248
2044.20,25.312
2044.40,25.412
2044.60,25.258
2044.80,25.324
2045.00,25.34
2045.20,25.25
2045.40,25.288
2045.60,25.378
2045.80,25.286
2046.00,25.348
2046.20,25.264
2046.40,25.28
2046.60,25.362
2046.80,25.256
2047.00,25.422
2047.20,25.288
2047.40,25.282
2047.60,25.256
2047.80,25.36
2048.00,25.266
2048.20,25.266
2048.40,25.618
2048.60,25.378
2048.80,25.27
2049.00,25.344
2049.20,25.236
2049.40,25.266
2049.60,25.294
2049.80,25.376
2050.00,25.348
2050.20,25.334
2050.40,25.25
2050.60,25.296
2050.80,25.278
2051.00,25.344
2051.20,25.346
2051.40,25.352
2051.60,25.288
2051.80,25.3
2052.00,25.294
2052.20,25.282
2052.40,25.302
2052.60,25.378
2052.80,25.238
2053.00,25.366
2053.20,25.288
2053.40,25.272
2053.60,25.312
2053.80,25.4
2054.00,25.312
2054.20,25.22
2054.40,25.348
2054.60,25.31
2054.80,25.272
2055.00,25.308
2055.20,25.418
2055.40,25.272
2055.60,25.3
2055.80,25.282
2056.00,25.3
2056.20,25.294
2056.40,25.744
2056.60,24.896
2056.80,25.346
2057.00,25.292
2057.20,25.23
2057.40,25.316
2057.60,25.286
2057.80,25.346
2058.00,25.582
2058.20,25.266
2058.40,25.292
2058.60,25.318
2058.80,25.302
2059.00,25.318
2059.20,25.3
2059.40,25.374
2059.60,25.266
2059.80,25.286
2060.00,25.288
2060.20,25.304
2060.40,25.318
2060.60,25.286
2060.80,25.406
2061.00,25.274
2061.20,25.31
2061.40,25.282
2061.60,25.274
2061.80,25.272
2062.00,25.426
2062.20,25.27
2062.40,25.302
2062.60,25.3
2062.80,23.542
2063.00,25.354
2063.20,25.292
2063.40,25.356
2063.60,25.22
2063.80,25.36
2064.00,25.288
2064.20,25.3
2064.40,25.258
2064.60,25.354
2064.80,25.272
2065.00,25.292
2065.20,25.332
2065.40,25.302
2065.60,25.282
2065.80,25.272
2066.00,25.308
2066.20,25.41
2066.40,25.266
2066.60,25.31
2066.80,25.316
2067.00,25.272
2067.20,25.288
2067.40,25.282
2067.60,25.594
2067.80,25.294
2068.00,25.34
2068.20,25.296
2068.40,25.34
2068.60,25.23
2068.80,25.294
2069.00,25.388
2069.20,25.242
2069.40,25.36
2069.60,25.256
2069.80,25.312
2070.00,25.274
2070.20,25.414
2070.40,25.22
2070.60,25.332
2070.80,25.242
2071.00,25.378
2071.20,25.316
2071.40,25.324
2071.60,25.36
2071.80,25.334
2072.00,25.278
2072.20,25.274
2072.40,25.318
2072.60,25.28
2072.80,25.312
2073.00,25.42
2073.20,25.27
2073.40,25.346
2073.60,25.266
2073.80,25.28
2074.00,25.304
2074.20,25.252
2074.40,25.854
2074.60,24.896
2074.80,25.272
2075.00,25.33
2075.20,25.258
2075.40,25.3
2075.60,25.352
2075.80,25.356
2076.00,25.31
2076.20,25.37
2076.40,25.234
2076.60,25.316
2076.80,25.274
2077.00,25.296
2077.20,25.586
2077.40,25.356
2077.60,25.286
2077.80,25.278
2078.00,25.296
2078.20,25.344
2078.40,25.4
2078.60,25.266
2078.80,25.266
2079.00,25.308
2079.20,25.308
2079.40,25.316
2079.60,25.288
2079.80,25.462
2080.00,25.296
2080.20,25.33
2080.40,25.258
2080.60,25.294
2080.80,25.264
2081.00,25.296
2081.20,25.44
2081.40,25.316
2081.60,25.288
2081.80,25.34
2082.00,25.294
2082.20,25.296
2082.40,25.312
2082.60,25.324
2082.80,25.292
2083.00,25.302
2083.20,25.352
2083.40,25.26
2083.60,25.304
2083.80,25.28
2084.00,25.392
2084.20,25.292
2084.40,25.312
2084.60,25.312
2084.80,25.274
2085.00,25.31
2085.20,25.296
2085.40,25.318
2085.60,25.368
2085.80,25.23
2086.00,25.322
2086.20,25.3
2086.40,25.33
2086.60,25.602
2086.80,25.186
2087.00,25.322
2087.20,25.296
2087.40,25.25
2087.60,25.334
2087.80,25.274
2088.00,25.332
2088.20,25.338
2088.40,25.34
2088.60,25.33
2088.80,25.222
2089.00,25.3
2089.20,25.352
2089.40,25.312
2089.60,25.356
2089.80,25.294
2090.00,25.236
2090.20,25.368
2090.40,25.28
2090.60,25.292
2090.80,25.346
2091.00,25.272
2091.20,25.302
2091.40,25.334
2091.60,25.28
2091.80,25.292
2092.00,25.274
2092.40,25.284
2092.60,25.306
2092.80,25.246
2093.00,25.306
2093.20,25.288
2093.40,25.456
2093.60,25.232
2093.80,25.326
2094.00,25.318
2094.20,25.296
2094.40,25.274
2094.60,25.414
2094.80,25.222
2095.00,25.39
2095.20,25.26
2095.40,25.356
2095.60,25.294
2095.80,25.254
2096.00,25.69
2096.20,25.29
2096.40,25.342
2096.60,25.29
2096.80,25.32
2097.00,25.316
2097.20,25.296
2097.40,25.362
2097.60,25.334
2097.80,25.244
2098.00,25.294
2098.20,25.356
2098.40,25.31
2098.60,25.328
2098.80,25.324
2099.00,25.376
2099.20,25.254
2099.40,25.31
2099.60,25.28
2099.80,25.26
2100.00,25.354
2100.20,25.372
2100.40,25.354
2100.60,25.25
2100.80,25.348
2101.00,25.272
2101.20,25.306
2101.40,25.294
2101.60,25.354
2101.80,25.302
2102.00,25.34
2102.20,25.284
2102.40,25.372
2102.60,25.328
2102.80,25.384
2103.00,25.254
2103.20,25.326
2103.40,25.346
2103.60,25.298
2103.80,25.332
2104.00,25.262
2104.20,25.406
2104.40,25.28
2104.60,25.37
2104.80,25.312
2105.00,25.268
2105.20,25.382
2105.40,25.266
2105.60,25.514
2105.80,25.364
2106.00,25.302
2106.20,25.372
2106.40,25.274
2106.60,25.28
2106.80,25.318
2107.00,25.376
2107.20,25.342
2107.40,25.29
2107.60,25.746
2107.80,24.898
2108.00,25.262
2108.20,25.346
2108.40,25.43
2108.60,25.302
2108.80,25.276
2109.00,25.288
2109.20,25.298
2109.40,25.348
2109.60,25.26
2109.80,25.362
2110.00,25.31
2110.20,25.32
2110.40,25.312
2110.60,25.326
2110.80,25.28
2111.00,25.436
2111.20,25.25
2111.40,25.282
2111.60,25.356
2111.80,25.312
2112.00,25.284
2112.20,25.324
2112.40,25.36
2112.60,25.35
2112.80,25.282
2113.00,25.328
2113.20,25.302
2113.40,25.288
2113.60,25.258
2113.80,25.392
2114.00,25.334
2114.20,25.282
2114.40,25.324
2114.60,25.316
2114.80,25.304
2115.00,25.28
2115.20,25.634
2115.40,25.28
2115.60,25.26
2115.80,25.356
2116.00,25.304
2116.20,25.302
2116.40,25.272
2116.60,25.398
2116.80,25.294
2117.00,25.272
2117.20,25.318
2117.40,25.274
2117.60,25.342
2117.80,25.294
2118.00,25.346
2118.20,25.272
2118.40,25.346
2118.60,25.318
2118.80,25.246
2119.00,25.36
2119.20,25.408
2119.40,25.276
2119.60,25.294
2119.80,25.306
2120.00,25.372
2120.20,25.274
2120.40,25.422
2120.60,25.346
2120.80,25.398
2121.00,25.31
2121.20,25.316
2121.40,25.316
2121.60,25.34
2121.80,25.32
2122.00,25.364
2122.20,25.356
2122.40,25.272
2122.60,25.332
2122.80,25.324
2123.00,25.294
2123.20,25.268
2123.40,25.394
2123.60,25.354
2123.80,25.262
2124.00,25.288
2124.20,25.304
2124.40,25.318
2124.60,25.354
2124.80,25.626
2125.00,25.274
2125.20,25.288
2125.40,25.364
2125.60,25.734
2125.80,24.82
2126.00,25.28
2126.20,25.34
2126.40,25.296
2126.60,25.324
2126.80,25.288
2127.00,25.398
2127.20,25.282
2127.40,25.39
2127.60,25.298
2127.80,25.294
2128.00,25.232
2128.20,25.284
2128.40,25.274
2128.60,25.356
2128.80,25.414
2129.00,25.338
2129.20,25.214
2129.40,25.298
2129.60,25.382
2129.80,25.266
2130.00,25.34
2130.20,25.32
2130.40,25.31
2130.60,25.35
2130.80,25.268
2131.00,25.324
2131.20,25.324
2131.40,25.346
2131.60,25.404
2131.80,25.29
2132.00,25.236
2132.20,25.32
2132.40,25.302
2132.60,25.378
2132.80,25.272
2133.00,25.338
2133.20,25.324
2133.40,25.324
2133.60,25.252
2133.80,25.332
2134.00,25.338
2134.20,25.364
2134.40,25.502
2134.60,25.282
2134.80,25.298
2135.00,25.332
2135.20,25.294
2135.40,25.266
2135.60,25.448
2135.80,25.262
2136.00,25.32
2136.20,25.318
2136.40,25.266
2136.60,25.29
2136.80,25.34
2137.00,25.32
2137.20,25.348
2137.40,25.354
2137.60,25.304
2137.80,25.312
2138.00,25.348
2138.20,25.208
2138.40,25.394
2138.60,25.318
2138.80,25.254
2139.00,25.28
2139.20,25.34
2139.40,25.28
2139.60,25.294
2139.80,25.382
2140.00,25.294
2140.20,25.28
2140.40,25.362
2140.60,25.284
2140.80,25.262
2141.00,25.346
2141.20,25.362
2141.40,25.332
2141.60,25.332
2141.80,25.29
2142.00,25.268
2142.20,25.346
2142.40,25.378
2142.60,25.272
2142.80,25.362
2143.00,25.26
2143.20,25.35
2143.40,25.298
2143.60,25.764
2143.80,25.284
2144.00,25.188
2144.20,25.236
2144.40,25.346
2144.60,25.302
2144.80,25.346
2145.00,25.29
2145.20,25.392
2145.40,25.274
2145.60,25.296
2145.80,25.35
2146.00,25.288
2146.20,25.298
2146.40,25.342
2146.60,25.332
2146.80,25.376
2147.00,25.274
2147.20,25.31
2147.40,25.328
2147.60,25.32
2147.80,25.284
2148.00,25.35
2148.20,25.376
2148.40,25.266
2148.60,25.294
2148.80,25.34
2149.00,25.294
2149.20,25.282
2149.40,25.368
2149.60,25.324
2149.80,25.284
2150.00,25.284
2150.20,25.316
2150.40,25.338
2150.60,25.384
2150.80,25.306
2151.00,25.324
2151.20,25.23
2151.40,25.328
2151.60,25.36
2151.80,25.284
2152.00,25.436
2152.20,25.326
2152.40,25.266
2152.60,25.334
2152.80,25.288
2153.00,25.36
2153.20,25.26
2153.40,25.538
2153.60,25.42
2153.80,25.29
2154.00,25.276
2154.20,25.376
2154.40,25.288
2154.60,25.304
2154.80,25.48
2155.00,25.232
2155.20,25.324
2155.40,25.276
2155.60,25.35
2155.80,25.288
2156.00,25.28
2156.20,25.382
2156.40,25.238
2156.60,25.282
2156.80,25.392
2157.00,25.26
2157.20,25.298
2157.40,25.296
2157.60,25.372
2157.80,25.28
2158.00,25.316
2158.20,25.32
2158.40,25.338
2158.60,25.298
2158.80,25.37
2159.00,25.328
2159.20,25.32
2159.40,25.31
2159.60,25.31
2159.80,25.28
2160.00,25.298
2160.20,25.404
2160.40,25.282
2160.60,25.326
2160.80,25.26
2161.00,25.302
2161.20,25.306
2161.40,25.296
2161.60,25.81
2161.80,24.906
2162.00,25.304
2162.20,25.266
2162.40,25.332
2162.60,25.266
2162.80,25.312
2163.00,25.636
2163.20,25.302
2163.40,25.328
2163.60,25.32
2163.80,25.274
2164.00,25.328
2164.20,25.334
2164.40,25.346
2164.60,25.326
2164.80,25.25
2165.00,25.31
2165.20,25.298
2165.40,25.338
2165.60,25.306
2165.80,25.392
2166.00,25.246
2166.20,25.36
2166.40,25.25
2166.60,25.316
2166.80,25.316
2167.00,25.384
2167.20,25.304
2167.40,25.298
2167.60,25.31
2167.80,25.288
2168.00,25.274
2168.20,25.35
2168.40,25.39
2168.60,25.318
2168.80,25.238
2169.00,25.378
2169.20,25.284
2169.40,25.312
2169.60,25.31
2169.80,25.378
2170.00,25.318
2170.20,25.338
2170.40,25.288
2170.60,25.284
2170.80,25.298
2171.00,25.274
2171.20,25.36
2171.40,25.282
2171.60,25.306
2171.80,25.34
2172.00,25.326
2172.20,25.296
2172.40,25.302
2172.60,25.64
2172.80,25.244
2173.00,25.332
2173.20,25.316
2173.40,25.346
2173.60,25.29
2173.80,25.276
2174.00,25.43
2174.20,25.306
2174.40,25.356
2174.60,25.23
2174.80,25.268
2175.00,25.312
2175.20,25.394
2175.40,25.332
2175.60,25.296
2175.80,25.294
2176.00,25.346
2176.20,25.282
2176.40,25.368
2176.60,25.316
2176.80,25.324
2177.00,25.312
2177.20,25.276
2177.40,25.298
2177.60,25.306
2177.80,25.276
2178.00,25.37
2178.20,25.372
2178.40,25.316
2178.60,25.298
2178.80,25.282
2179.00,25.362
2179.20,25.246
2179.40,25.354
2179.60,25.76
2179.80,24.892
2180.00,25.346
2180.20,25.254
2180.40,25.32
2180.60,25.32
2180.80,25.438
2181.00,25.298
2181.20,25.32
2181.40,25.282
2181.60,25.342
2181.80,25.346
2182.00,25.334
2182.20,25.524
2182.40,25.332
2182.60,25.296
2182.80,25.298
2183.00,25.326
2183.20,25.236
2183.40,25.394
2183.60,25.238
2183.80,25.35
2184.00,25.31
2184.20,25.274
2184.40,25.306
2184.60,25.298
2184.80,25.43
2185.00,25.302
2185.20,25.228
2185.40,25.272
2185.60,25.412
2185.80,25.246
2186.00,25.342
2186.20,25.332
2186.40,25.312
2186.60,25.304
2186.80,25.34
2187.00,25.304
2187.20,25.296
2187.40,25.318
2187.60,25.364
2187.80,25.304
2188.00,25.274
2188.20,25.312
2188.40,25.318
2188.60,25.302
2188.80,25.254
2189.00,25.404
2189.20,25.282
2189.40,25.298
2189.60,25.338
2189.80,25.302
2190.00,25.26
2190.20,25.368
2190.40,25.386
2190.60,25.282
2190.80,25.274
2191.00,25.316
2191.20,25.236
2191.40,25.312
2191.60,25.636
2191.80,25.25
2192.00,25.298
2192.20,25.232
2192.40,25.372
2192.60,25.29
2192.80,25.298
2193.00,25.452
2193.20,25.274
2193.40,25.312
2193.60,25.302
2193.80,25.34
2194.00,25.316
2194.20,25.246
2194.40,25.328
2194.60,25.29
2194.80,25.21
2195.00,25.192
2195.20,25.274
2195.40,25.28
2195.60,25.244
2195.80,25.326
2196.00,25.232
2196.20,25.238
2196.40,25.2
2196.60,25.304
2196.80,25.208
2197.00,25.254
2197.20,25.436
2197.40,25.24
2197.60,25.802
2197.80,24.876
2198.00,25.288
2198.20,25.338
2198.40,25.32
2198.60,25.382
2198.80,25.342
2199.00,25.268
2199.20,25.326
2199.40,25.326
2199.60,25.282
2199.80,25.456
2200.00,25.316
2200.20,25.252
2200.40,25.326
2200.60,25.238
2200.80,25.304
2201.00,25.328
2201.20,25.692
2201.40,25.238
2201.60,25.32
2201.80,25.326
2202.00,25.276
2202.20,25.362
2202.40,25.28
2202.60,25.39
2202.80,25.306
2203.00,25.282
2203.20,25.318
2203.40,25.296
2203.60,25.326
2203.80,25.274
2204.00,25.37
2204.20,25.232
2204.40,25.384
2204.60,25.28
2204.80,25.368
2205.00,25.262
2205.20,25.338
2205.40,25.448
2205.60,25.266
2205.80,25.298
2206.00,25.328
2206.20,25.354
2206.40,25.296
2206.60,25.334
2206.80,25.354
2207.00,25.312
2207.20,25.338
2207.40,25.312
2207.60,25.304
2207.80,25.28
2208.00,25.47
2208.20,25.26
2208.40,25.252
2208.60,25.274
2208.80,25.324
2209.00,25.26
2209.20,25.326
2209.40,25.346
2209.60,25.31
2209.80,25.288
2210.00,25.284
2210.20,25.288
2210.40,25.356
2210.60,25.28
2210.80,25.57
2211.00,25.354
2211.20,25.316
2211.40,25.284
2211.60,25.288
2211.80,25.288
2212.00,25.276
2212.20,25.362
2212.40,25.342
2212.60,25.29
2212.80,25.346
2213.00,25.272
2213.20,25.328
2213.40,25.244
2213.60,25.384
2213.80,25.338
2214.00,25.296
2214.20,25.258
2214.40,25.398
2214.60,25.316
2214.80,25.246
2215.00,25.312
2215.20,25.312
2215.40,25.326
2215.60,25.708
2215.80,24.856
2216.00,25.31
2216.20,25.392
2216.40,25.24
2216.60,25.284
2216.80,25.346
2217.00,25.316
2217.20,25.284
2217.40,25.272
2217.60,25.426
2217.80,25.328
2218.00,25.342
2218.20,25.282
2218.40,25.362
2218.60,25.276
2218.80,25.232
2219.00,25.434
2219.20,25.32
2219.40,25.332
2219.60,25.26
2219.80,25.384
2220.00,25.274
2220.20,25.328
2220.40,25.64
2220.60,25.288
2220.80,25.274
2221.00,25.294
2221.20,25.312
2221.40,25.306
2221.60,25.316
2221.80,25.414
2222.00,25.29
2222.20,25.326
2222.40,25.29
2222.60,25.276
2222.80,25.36
2223.00,25.342
2223.20,25.316
2223.40,25.368
2223.60,25.274
2223.80,25.356
2224.00,25.34
2224.20,25.326
2224.40,25.4
2224.60,25.25
2224.80,25.346
2225.00,25.24
2225.20,25.378
2225.40,25.232
2225.60,25.316
2225.80,25.376
2226.00,25.32
2226.20,25.304
2226.40,25.332
2226.60,25.272
2226.80,25.332
2227.00,25.26
2227.20,25.442
2227.40,25.284
2227.60,25.276
2227.80,25.276
2228.00,25.362
2228.20,25.282
2228.40,25.324
2228.60,25.384
2228.80,25.32
2229.00,25.312
2229.20,25.302
2229.40,25.26
2229.60,25.318
2229.80,25.346
2230.00,25.628
2230.20,25.304
2230.40,25.334
2230.60,25.276
2230.80,25.328
2231.00,25.26
2231.20,25.348
2231.40,25.318
2231.60,25.316
2231.80,25.296
2232.00,25.29
2232.20,25.354
2232.40,25.274
2232.60,25.458
2232.80,25.24
2233.00,25.296
2233.20,25.294
2233.40,25.28
2233.60,25.816
2233.80,24.848
2234.00,25.348
2234.20,25.354
2234.40,25.274
2234.60,25.29
2234.80,25.334
2235.00,25.262
2235.20,25.324
2235.40,25.378
2235.60,25.338
2235.80,25.224
2236.00,25.296
2236.20,25.316
2236.40,25.274
2236.60,25.272
2236.80,25.452
2237.00,25.258
2237.20,25.334
2237.40,25.362
2237.60,25.284
2237.80,25.276
2238.00,25.338
2238.20,25.404
2238.40,25.306
2238.60,25.294
2238.80,25.258
2239.00,25.262
2239.20,25.258
2239.40,25.334
2239.60,25.492
2239.80,25.326
2240.00,25.302
2240.20,25.272
2240.40,25.32
2240.60,25.32
2240.80,25.408
2241.00,25.306
2241.20,25.272
2241.40,25.346
2241.60,25.244
2241.80,25.326
2242.00,25.362
2242.20,25.338
2242.40,25.324
2242.60,25.266
2242.80,25.32
2243.00,25.274
2243.20,25.276
2243.40,25.29
2243.60,25.43
2243.80,25.326
2244.00,25.28
2244.20,25.32
2244.40,25.34
2244.60,25.296
2244.80,25.28
2245.00,25.406
2245.20,25.304
2245.40,25.304
2245.60,25.306
2245.80,25.31
2246.00,25.34
2246.20,25.266
2246.40,25.404
2246.60,25.284
2246.80,25.296
2247.00,25.328
2247.20,25.342
2247.40,25.302
2247.60,25.332
2247.80,25.258
2248.00,25.364
2248.20,25.254
2248.40,25.342
2248.60,25.282
2248.80,25.296
2249.00,25.758
2249.20,25.148
2249.40,25.282
2249.60,25.32
2249.80,25.346
2250.00,25.342
2250.20,25.316
2250.40,25.39
2250.60,25.268
2250.80,25.356
2251.00,25.306
2251.20,25.296
2251.40,25.334
2251.60,25.764
2251.80,24.892
2252.00,25.318
2252.20,25.334
2252.40,25.28
2252.60,25.306
2252.80,25.298
2253.00,25.32
2253.20,25.368
2253.40,25.34
2253.60,25.32
2253.80,25.348
2254.00,25.232
2254.20,25.408
2254.40,25.23
2254.60,25.386
2254.80,25.364
2255.00,25.238
2255.20,25.338
2255.40,25.28
2255.60,25.29
2255.80,25.382
2256.00,25.304
2256.20,25.298
2256.40,25.244
2256.60,25.32
2256.80,25.282
2257.00,25.31
2257.20,25.382
2257.40,25.346
2257.60,25.232
2257.80,25.356
2258.00,25.268
2258.20,25.24
2258.40,25.29
2258.60,25.65
2258.80,25.302
2259.00,25.346
2259.20,25.346
2259.40,25.262
2259.60,25.348
2259.80,25.262
2260.00,25.42
2260.20,25.25
2260.40,25.302
2260.60,25.304
2260.80,25.262
2261.00,25.31
2261.20,25.342
2261.40,25.348
2261.60,25.324
2261.80,25.272
2262.00,25.32
2262.20,25.34
2262.40,25.238
2262.60,25.354
2262.80,25.398
2263.00,25.28
2263.20,25.296
2263.40,25.312
2263.60,25.26
2263.80,25.328
2264.00,25.32
2264.20,25.332
2264.40,25.24
2264.60,25.342
2264.80,25.28
2265.00,25.328
2265.20,25.354
2265.40,25.37
2265.60,25.268
2265.80,25.356
2266.00,25.328
2266.20,25.284
2266.40,25.302
2266.60,25.29
2266.80,25.422
2267.00,25.334
2267.20,25.31
2267.40,25.326
2267.60,25.25
2267.80,25.244
2268.00,25.31
2268.20,25.582
2268.40,25.298
2268.60,25.306
2268.80,25.31
2269.00,25.37
2269.20,25.288
2269.40,25.316
2269.60,25.764
2269.80,24.92
2270.00,25.274
2270.20,25.302
2270.40,25.324
2270.60,25.294
2270.80,25.35
2271.00,25.32
2271.20,25.356
2271.40,25.294
2271.60,25.272
2271.80,25.328
2272.00,25.296
2272.20,25.346
2272.40,25.316
2272.60,25.332
2272.80,25.326
2273.00,25.306
2273.20,25.31
2273.40,25.332
2273.60,25.362
2273.80,25.294
2274.00,25.326
2274.20,25.294
2274.40,25.302
2274.60,25.328
2274.80,25.316
2275.00,25.354
2275.20,25.334
2275.40,25.296
2275.60,25.368
2275.80,25.238
2276.00,25.318
2276.20,25.326
2276.40,25.262
2276.60,25.23
2276.80,25.34
2277.00,25.26
