Time (ms),Main Avg Current (mA)
0.00,5.776
0.20,5.832
0.40,5.828
0.60,5.8
0.80,5.828
1.00,5.81
1.20,5.77
1.40,5.864
1.60,5.852
1.80,5.838
2.00,5.814
2.20,5.836
2.40,5.824
2.60,5.794
2.80,5.808
3.00,5.854
3.20,5.918
3.40,5.734
3.60,5.806
3.80,5.814
4.00,5.836
4.20,5.852
4.40,5.886
4.60,5.784
4.80,5.794
5.00,5.816
5.20,5.792
5.40,5.846
5.60,5.822
5.80,5.874
6.00,5.816
6.20,5.828
6.40,5.788
6.60,5.85
6.80,5.832
7.00,5.786
7.20,5.854
7.40,5.828
7.60,5.82
7.80,5.808
8.00,5.824
8.20,5.798
8.40,5.832
8.60,5.83
8.80,5.85
9.00,5.788
9.20,5.776
9.40,5.846
9.60,5.794
9.80,5.82
10.00,5.788
10.20,5.816
10.40,5.776
10.60,5.828
10.80,5.786
11.00,5.866
11.20,5.744
11.40,5.788
11.60,5.828
11.80,5.866
12.00,5.802
12.20,5.784
12.40,5.798
12.60,5.81
12.80,5.77
13.00,5.816
13.20,5.842
13.40,5.756
13.60,5.824
13.80,5.824
14.00,5.838
14.20,5.798
14.40,5.788
14.60,5.808
14.80,5.842
15.00,5.806
15.20,5.778
15.40,5.852
15.60,5.802
15.80,5.816
16.00,5.792
16.20,5.828
16.40,5.792
16.60,5.81
16.80,5.786
17.00,5.836
17.20,5.794
17.40,5.828
17.60,5.83
17.80,5.77
18.00,5.872
18.20,5.786
18.40,5.846
18.60,5.82
18.80,5.77
19.00,5.816
19.20,5.888
19.40,5.798
19.60,5.842
19.80,5.82
20.00,5.784
20.20,5.792
20.40,5.872
20.60,5.864
20.80,5.794
21.00,5.838
21.20,5.908
21.40,5.754
21.60,5.846
21.80,5.776
22.00,5.828
22.20,5.8
22.40,5.822
22.60,5.798
22.80,5.816
23.00,5.872
23.20,5.806
23.40,5.778
23.60,5.854
23.80,5.82
24.00,5.868
24.20,5.81
24.40,5.78
24.60,5.838
24.80,5.788
25.00,5.83
25.20,5.85
25.40,5.808
25.60,5.8
25.80,5.816
26.00,5.798
26.20,5.822
26.40,5.822
26.60,5.792
26.80,5.816
27.00,5.82
27.20,5.846
27.40,5.798
27.60,5.792
27.80,5.798
28.00,5.816
28.20,5.778
28.40,5.814
28.60,5.788
28.80,5.81
29.00,5.778
29.20,5.802
29.40,5.824
29.60,5.82
29.80,5.82
30.00,5.808
30.20,5.792
30.40,5.808
30.60,5.806
30.80,5.808
31.00,5.828
31.20,5.798
31.40,5.814
31.60,5.8
31.80,5.838
32.00,5.83
32.20,5.802
32.40,5.794
32.60,5.808
32.80,5.814
33.00,5.776
33.20,5.86
33.40,5.824
33.60,5.798
33.80,5.83
34.00,5.802
34.20,5.828
34.40,5.794
34.60,5.762
34.80,5.85
35.00,5.828
35.20,5.802
35.40,5.794
35.60,5.842
35.80,5.846
36.00,5.832
36.20,5.82
36.40,5.748
36.60,5.838
36.80,5.858
37.00,5.842
37.20,5.832
37.40,5.806
37.60,5.78
37.80,5.808
38.00,5.85
38.20,5.822
38.40,5.82
38.60,5.846
38.80,5.816
39.00,5.78
39.20,5.932
39.40,5.78
39.60,5.806
39.80,5.78
40.00,5.808
40.20,5.836
40.40,5.766
40.60,5.86
40.80,5.83
41.00,5.808
41.20,5.806
41.40,5.81
41.60,5.832
41.80,5.77
42.00,5.854
42.20,5.828
42.40,5.788
42.60,5.846
42.80,5.78
43.00,5.808
43.20,5.794
43.40,5.86
43.60,5.808
43.80,5.842
44.00,5.792
44.20,5.78
44.40,5.81
44.60,5.788
44.80,5.83
45.00,5.78
45.20,5.81
45.40,5.822
45.60,5.82
45.80,5.75
46.00,5.858
46.20,5.816
46.40,5.806
46.60,5.798
46.80,5.778
47.00,5.794
47.20,5.772
47.40,5.85
47.60,5.808
47.80,5.798
48.00,5.814
48.20,5.806
48.40,5.854
48.60,5.772
48.80,5.808
49.00,5.836
49.20,5.794
49.40,5.82
49.60,5.77
49.80,5.842
50.00,5.78
50.20,5.83
50.40,5.814
50.60,5.82
50.80,5.8
51.00,5.842
51.20,5.756
51.40,5.828
51.60,5.854
51.80,5.81
52.00,5.784
52.20,5.8
52.40,5.808
52.60,5.8
52.80,5.824
53.00,5.836
53.20,5.822
53.40,5.822
53.60,5.776
53.80,5.828
54.00,5.88
54.20,5.824
54.40,5.802
54.60,5.78
54.80,5.86
55.00,5.83
55.20,5.802
55.40,5.844
55.60,5.8
55.80,5.792
56.00,5.806
56.20,5.824
56.40,5.814
56.60,5.83
56.80,5.788
57.00,5.806
57.20,5.918
57.40,5.734
57.60,5.788
57.80,5.788
58.00,5.824
58.20,5.828
58.40,5.776
58.60,5.86
58.80,5.788
59.00,5.822
59.20,5.81
59.40,5.794
59.60,5.806
59.80,5.802
60.00,5.814
60.20,5.778
60.40,5.786
60.60,5.814
60.80,5.838
61.00,5.798
61.20,5.822
61.40,5.8
61.60,5.766
61.80,5.854
62.00,5.764
62.20,5.836
62.40,5.82
62.60,5.758
62.80,5.824
63.00,5.82
63.20,5.798
63.40,5.806
63.60,5.808
63.80,5.792
64.00,5.82
64.20,5.828
64.40,5.842
64.60,5.762
64.80,5.766
65.00,5.814
65.20,5.86
65.40,5.852
65.60,5.776
65.80,5.802
66.00,5.794
66.20,5.802
66.40,5.816
66.60,5.794
66.80,5.822
67.00,5.786
67.20,5.822
67.40,5.794
67.60,5.888
67.80,5.78
68.00,5.816
68.20,5.8
68.40,5.802
68.60,5.86
68.80,5.83
69.00,5.788
69.20,5.846
69.40,5.794
69.60,5.816
69.80,5.792
70.00,5.844
70.20,5.816
70.40,5.836
70.60,5.798
70.80,5.8
71.00,5.832
71.20,5.864
71.40,5.788
71.60,5.832
71.80,5.802
72.00,5.77
72.20,5.854
72.40,5.786
72.60,5.876
72.80,5.822
73.00,5.802
73.20,5.824
73.40,5.836
73.60,5.794
73.80,5.772
74.00,5.832
74.20,5.806
74.40,5.806
74.60,5.832
74.80,5.83
75.00,5.832
75.20,5.86
75.40,5.726
75.60,5.802
75.80,5.822
76.00,5.75
76.20,5.836
76.40,5.83
76.60,5.824
76.80,5.776
77.00,5.86
77.20,5.788
77.40,5.776
77.60,5.81
77.80,5.808
78.00,5.798
78.20,5.778
78.40,5.776
78.60,5.814
78.80,5.808
79.00,5.864
79.20,5.714
79.40,5.816
79.60,5.828
79.80,5.764
80.00,5.788
80.20,5.814
80.40,5.852
80.60,5.814
80.80,5.776
81.00,5.778
81.20,5.784
81.40,5.83
81.60,5.792
81.80,5.78
82.00,5.824
82.20,5.816
82.40,5.784
82.60,5.802
82.80,5.792
83.00,5.786
83.20,5.83
83.40,5.836
83.60,5.792
83.80,5.806
84.00,5.808
84.20,5.81
84.40,5.838
84.60,5.77
84.80,5.83
85.00,5.802
85.20,5.81
85.40,5.806
85.60,5.792
85.80,5.85
86.00,5.816
86.20,5.798
86.40,5.82
86.60,5.806
86.80,5.832
87.00,5.844
87.20,5.82
87.40,5.798
87.60,5.852
87.80,5.83
88.00,5.77
88.20,5.824
88.40,5.852
88.60,5.808
88.80,5.814
89.00,5.814
89.20,5.808
89.40,5.802
89.60,5.82
89.80,5.844
90.00,5.798
90.20,5.832
90.40,5.852
90.60,5.788
90.80,5.792
91.00,5.824
91.20,5.798
91.40,5.81
91.60,5.844
91.80,5.828
92.00,5.736
92.20,5.776
92.40,5.88
92.60,5.808
92.80,5.81
93.00,5.808
93.20,5.894
93.40,5.71
93.60,5.794
93.80,5.758
94.00,5.832
94.20,5.754
94.40,5.816
94.60,5.852
94.80,5.814
95.00,5.846
95.20,5.83
95.40,5.778
95.60,5.766
95.80,5.81
96.00,5.814
96.20,5.794
96.40,5.784
96.60,5.808
96.80,5.836
97.00,5.8
97.20,5.766
97.40,5.756
97.60,5.82
97.80,5.82
98.00,5.83
98.20,5.8
98.40,5.844
98.60,5.776
98.80,5.788
99.00,5.846
99.20,5.772
99.40,5.822
99.60,5.78
99.80,5.838
100.00,5.82
100.20,5.864
100.40,5.762
100.60,5.798
100.80,5.784
101.00,5.798
101.20,5.822
101.40,5.82
101.60,5.85
101.80,5.784
102.00,5.784
102.20,5.836
102.40,5.786
102.60,5.83
102.80,5.844
103.00,5.8
103.20,5.806
103.40,5.842
103.60,5.822
103.80,5.808
104.00,5.828
104.20,5.822
104.40,5.81
104.60,5.866
104.80,5.786
105.00,5.778
105.20,5.816
105.40,5.808
105.60,5.81
105.80,5.828
106.00,5.83
106.20,5.798
106.40,5.8
106.60,5.792
106.80,5.872
107.00,5.792
107.20,5.792
107.40,5.82
107.60,5.81
107.80,5.82
108.00,5.844
108.20,5.786
108.40,5.8
108.60,5.798
108.80,5.792
109.00,5.776
109.20,5.814
109.40,5.86
109.60,5.77
109.80,5.792
110.00,5.814
110.20,5.828
110.40,5.808
110.60,5.75
110.80,5.844
111.00,5.794
111.20,5.874
111.40,5.726
111.60,5.806
111.80,5.81
112.00,5.836
112.20,5.798
112.40,5.758
112.60,5.776
112.80,5.814
113.00,5.778
113.20,5.854
113.40,5.808
113.60,5.816
113.80,5.808
114.00,5.802
114.20,5.842
114.40,5.788
114.60,5.776
114.80,5.792
115.00,5.788
115.20,5.828
115.40,5.78
115.60,5.798
115.80,5.854
116.00,5.816
116.20,5.776
116.40,5.776
116.60,5.824
116.80,5.81
117.00,5.82
117.20,5.792
117.40,5.786
117.60,5.808
117.80,5.832
118.00,5.776
118.20,5.81
118.40,5.844
118.60,5.802
118.80,5.788
119.00,5.824
119.20,5.828
119.40,5.82
119.60,5.824
119.80,5.81
120.00,5.802
120.20,5.778
120.40,5.82
120.60,5.836
120.80,5.82
121.00,5.816
121.20,5.814
121.40,5.852
121.60,5.844
121.80,5.802
122.00,5.776
122.20,5.802
122.40,5.838
122.60,5.836
122.80,5.776
123.00,5.852
123.20,5.806
123.40,5.794
123.60,5.824
123.80,5.776
124.00,5.828
124.20,5.806
124.40,5.786
124.60,5.814
124.80,5.846
125.00,5.82
125.20,5.828
125.40,5.816
125.60,5.794
125.80,5.814
126.00,5.778
126.20,5.836
126.40,5.764
126.60,5.792
126.80,5.8
127.00,5.828
127.20,5.788
127.40,5.82
127.60,5.802
127.80,5.792
128.00,5.832
128.20,5.8
128.40,5.798
128.60,5.792
128.80,5.778
129.00,5.798
129.20,5.916
129.40,5.704
129.60,5.792
129.80,5.762
130.00,5.824
130.20,5.85
130.40,5.81
130.60,5.824
130.80,5.83
131.00,5.78
131.20,5.778
131.40,5.742
131.60,5.81
131.80,5.788
132.00,5.792
132.20,5.836
132.40,5.798
132.60,5.82
132.80,5.828
133.00,5.808
133.20,5.788
133.40,5.772
133.60,5.838
133.80,5.822
134.00,5.778
134.20,5.802
134.40,5.842
134.60,5.824
134.80,5.798
135.00,5.81
135.20,5.802
135.40,5.85
135.60,5.808
135.80,5.798
136.00,5.822
136.20,5.86
136.40,5.784
136.60,5.798
136.80,5.816
137.00,5.832
137.20,5.824
137.40,5.786
137.60,5.808
137.80,5.832
138.00,5.808
138.20,5.83
138.40,5.794
138.60,5.8
138.80,5.824
139.00,5.798
139.20,5.788
139.40,5.836
139.60,5.824
139.80,5.816
140.00,5.81
140.20,5.762
140.40,5.816
140.60,5.8
140.80,5.854
141.00,5.864
141.20,5.764
141.40,5.792
141.60,5.82
141.80,5.784
142.00,5.82
142.20,5.786
142.40,5.8
142.60,5.794
142.80,5.846
143.00,5.794
143.20,5.808
143.40,5.788
143.60,5.8
143.80,5.808
144.00,5.808
144.20,5.792
144.40,5.784
144.60,5.808
144.80,5.806
145.00,5.8
145.20,5.808
145.40,5.75
145.60,5.82
145.80,5.814
146.00,5.792
146.20,5.8
146.40,5.778
146.60,5.846
146.80,5.778
147.00,5.806
147.20,5.894
147.40,5.728
147.60,5.764
147.80,5.792
148.00,5.748
148.20,5.836
148.40,5.784
148.60,5.8
148.80,5.816
149.00,5.846
149.20,5.758
149.40,5.81
149.60,5.792
149.80,5.836
150.00,5.822
150.20,5.798
150.40,5.764
150.60,5.802
150.80,5.824
151.00,5.806
151.20,5.81
151.40,5.776
151.60,5.806
151.80,5.816
152.00,5.792
152.20,5.81
152.40,5.836
152.60,5.776
152.80,5.828
153.00,5.81
153.20,5.758
153.40,5.83
153.60,5.83
153.80,5.802
154.00,5.872
154.20,5.814
154.40,5.802
154.60,5.798
154.80,5.844
155.00,5.814
155.20,5.814
155.40,5.85
155.60,5.828
155.80,5.838
156.00,5.754
156.20,5.83
156.40,5.836
156.60,5.798
156.80,5.816
157.00,5.798
157.20,5.836
157.40,5.822
157.60,5.806
157.80,5.764
158.00,5.8
158.20,5.798
158.40,5.82
158.60,5.808
158.80,5.82
159.00,5.822
159.20,5.772
159.40,5.798
159.60,5.814
159.80,5.786
160.00,5.822
160.20,5.766
160.40,5.786
160.60,5.788
160.80,5.822
161.00,5.778
161.20,5.788
161.40,5.842
161.60,5.75
161.80,5.814
162.00,5.784
162.20,5.822
162.40,5.75
162.60,5.8
162.80,5.814
163.00,5.772
163.20,5.82
163.40,5.78
163.60,5.822
163.80,5.822
164.00,5.81
164.20,5.81
164.40,5.75
164.60,5.802
164.80,5.786
165.00,5.828
165.20,5.93
165.40,5.69
165.60,5.778
165.80,5.792
166.00,5.828
166.20,5.808
166.40,5.778
166.60,5.82
166.80,5.8
167.00,5.798
167.20,5.808
167.40,5.776
167.60,5.844
167.80,5.808
168.00,5.816
168.20,5.82
168.40,5.822
168.60,5.828
168.80,5.78
169.00,5.814
169.20,5.798
169.40,5.802
169.60,5.806
169.80,5.8
170.00,5.866
170.20,5.814
170.40,5.842
170.60,5.778
170.80,5.814
171.00,5.788
171.20,5.81
171.40,5.842
171.60,5.776
171.80,5.832
172.00,5.816
172.20,5.824
172.40,5.816
172.60,5.776
172.80,5.8
173.00,5.806
173.20,5.836
173.40,5.788
173.60,5.78
173.80,5.824
174.00,5.794
174.20,5.808
174.40,5.854
174.60,5.806
174.80,5.786
175.00,5.792
175.20,5.808
175.40,5.802
175.60,5.8
175.80,5.798
176.00,5.844
176.20,5.792
176.40,5.766
176.60,5.794
176.80,5.794
177.00,5.794
177.20,5.8
177.40,5.798
177.60,5.798
177.80,5.83
178.00,5.792
178.20,5.792
178.40,5.786
178.60,5.8
178.80,5.806
179.00,5.788
179.20,5.756
179.40,5.842
179.60,5.784
179.80,5.824
180.00,5.776
180.20,5.808
180.40,5.788
180.60,5.806
180.80,5.828
181.00,5.78
181.20,5.758
181.40,5.844
181.60,5.8
181.80,5.798
182.00,5.816
182.20,5.788
182.40,5.794
182.60,5.806
182.80,5.754
183.00,5.824
183.20,5.918
183.40,5.718
183.60,5.786
183.80,5.808
184.00,5.792
184.20,5.814
184.40,5.806
184.60,5.798
184.80,5.806
185.00,5.8
185.20,5.784
185.40,5.842
185.60,5.81
185.80,5.842
186.00,5.824
186.20,5.808
186.40,5.794
186.60,5.784
186.80,5.816
187.00,5.798
187.20,5.814
187.40,5.828
187.60,5.78
187.80,5.866
188.00,5.824
188.20,5.794
188.40,5.786
188.60,5.794
188.80,5.854
189.00,5.798
189.20,5.814
189.40,5.8
189.60,5.824
189.80,5.816
190.00,5.822
190.20,5.794
190.40,5.778
190.60,5.808
190.80,5.784
191.00,5.828
191.20,5.786
191.40,5.802
191.60,5.798
191.80,5.772
192.00,5.81
192.20,5.816
192.40,5.794
192.60,5.77
192.80,5.778
193.00,5.808
193.20,5.8
193.40,5.788
193.60,5.846
193.80,5.762
194.00,5.82
194.20,5.778
194.40,5.808
194.60,5.788
194.80,5.816
195.00,5.762
195.20,5.788
195.40,5.816
195.60,5.778
195.80,5.816
196.00,5.8
196.20,5.786
196.40,5.81
196.60,5.83
196.80,5.786
197.00,5.798
197.20,5.798
197.40,5.75
197.60,5.766
197.80,5.824
198.00,5.832
198.20,5.748
198.40,5.83
198.60,5.792
198.80,5.786
199.00,5.846
199.20,5.762
199.40,5.824
199.60,5.78
199.80,5.81
200.00,5.798
200.20,5.8
200.40,5.808
200.60,5.772
200.80,5.802
201.00,5.814
201.20,5.902
201.40,5.714
201.60,5.77
201.80,5.78
202.00,5.852
202.20,5.81
202.40,5.8
202.60,5.798
202.80,5.83
203.00,5.78
203.20,5.852
203.40,5.808
203.60,5.77
203.80,5.806
204.00,5.852
204.20,5.806
204.40,5.844
204.60,5.8
204.80,5.776
205.00,5.832
205.20,5.786
205.40,5.828
205.60,5.764
205.80,5.822
206.00,5.814
206.20,5.78
206.40,5.816
206.60,5.836
206.80,5.82
207.00,5.836
207.20,5.776
207.40,5.776
207.60,5.842
207.80,5.798
208.00,5.81
208.20,5.842
208.40,5.784
208.60,5.78
208.80,5.786
209.00,5.808
209.20,5.786
209.40,5.784
209.60,5.808
209.80,5.798
210.00,5.846
210.20,5.792
210.40,5.788
210.60,5.78
210.80,5.794
211.00,5.784
211.20,5.822
211.40,5.8
211.60,5.82
211.80,5.764
212.00,5.8
212.20,5.828
212.40,5.764
212.60,5.806
212.80,5.814
213.00,5.792
213.20,5.758
213.40,5.806
213.60,5.778
213.80,5.83
214.00,5.776
214.20,5.78
214.40,5.8
214.60,5.776
214.80,5.82
215.00,5.814
215.20,5.842
215.40,5.798
215.60,5.764
215.80,5.83
216.00,5.82
216.20,5.806
216.40,5.77
216.60,5.814
216.80,5.814
217.00,5.794
217.20,5.802
217.40,5.784
217.60,5.808
217.80,5.808
218.00,5.744
218.20,5.842
218.40,5.842
218.60,5.776
218.80,5.814
219.00,5.808
219.20,5.882
219.40,5.748
219.60,5.846
219.80,5.824
220.00,5.798
220.20,5.8
220.40,5.776
220.60,5.842
220.80,5.762
221.00,5.778
221.20,5.824
221.40,5.828
221.60,5.762
221.80,5.828
222.00,5.786
222.20,5.842
222.40,5.83
222.60,5.802
222.80,5.802
223.00,5.814
223.20,5.836
223.40,5.776
223.60,5.798
223.80,5.786
224.00,5.788
224.20,5.824
224.40,5.8
224.60,5.786
224.80,5.822
225.00,5.802
225.20,5.836
225.40,5.776
225.60,5.838
225.80,5.8
226.00,5.794
226.20,5.798
226.40,5.83
226.60,5.776
226.80,5.822
227.00,5.742
227.20,5.798
227.40,5.776
227.60,5.798
227.80,5.792
228.00,5.82
228.20,5.808
228.40,5.816
228.60,5.772
228.80,5.808
229.00,5.762
229.20,5.814
229.40,5.778
229.60,5.778
229.80,5.816
230.00,5.824
230.20,5.8
230.40,5.78
230.60,5.8
230.80,5.792
231.00,5.8
231.20,5.762
231.40,5.838
231.60,5.764
231.80,5.832
232.00,5.81
232.20,5.758
232.40,5.78
232.60,5.794
232.80,5.816
233.00,5.776
233.20,5.846
233.40,5.828
233.60,5.778
233.80,5.798
234.00,5.772
234.20,5.82
234.40,5.766
234.60,5.852
234.80,5.756
235.00,5.82
235.20,5.784
235.40,5.816
235.60,5.808
235.80,5.83
236.00,5.814
236.20,5.772
236.40,5.806
236.60,5.772
236.80,5.844
237.00,5.836
237.20,5.93
237.40,5.652
237.60,5.832
237.80,5.816
238.00,5.806
238.20,5.83
238.40,5.784
238.60,5.806
238.80,5.784
239.00,5.788
239.20,5.786
239.40,5.846
239.60,5.792
239.80,5.81
240.00,5.86
240.20,5.726
240.40,5.78
240.60,5.808
240.80,5.806
241.00,5.83
241.20,5.814
241.40,5.77
241.60,5.802
241.80,5.814
242.00,5.798
242.20,5.842
242.40,5.822
242.60,5.726
242.80,5.788
243.00,5.748
243.20,5.858
243.40,5.81
243.60,5.808
243.80,5.784
244.00,5.806
244.20,5.794
244.40,5.778
244.60,5.762
244.80,5.816
245.00,5.776
245.20,5.776
245.40,5.776
245.60,5.77
245.80,5.802
246.00,5.792
246.20,5.788
246.40,5.83
246.60,5.786
246.80,5.766
247.00,5.792
247.20,5.814
247.40,5.806
247.60,5.784
247.80,5.784
248.00,5.8
248.20,5.784
248.40,5.808
248.60,5.8
248.80,5.792
249.00,5.82
249.20,5.772
249.40,5.786
249.60,5.822
249.80,5.762
250.00,5.836
250.20,5.794
250.40,5.776
250.60,5.824
250.80,5.772
251.00,5.828
251.20,5.842
251.40,5.776
251.60,5.758
251.80,5.822
252.00,5.828
252.20,5.792
252.40,5.864
252.60,5.764
252.80,5.822
253.00,5.784
253.20,5.808
253.40,5.802
253.60,5.792
253.80,5.794
254.00,5.864
254.20,5.772
254.40,5.764
254.60,5.816
254.80,5.824
255.00,5.822
255.20,5.912
255.40,5.7
255.60,5.838
255.80,5.798
256.00,5.784
256.20,5.808
256.40,5.788
256.60,5.772
256.80,5.846
257.00,5.824
257.20,5.816
257.40,5.824
257.60,5.78
257.80,5.816
258.00,5.794
258.20,5.792
258.40,5.784
258.60,5.806
258.80,5.802
259.00,5.814
259.20,5.808
259.40,5.792
259.60,5.816
259.80,5.784
260.00,5.77
260.20,5.792
260.40,5.832
260.60,5.808
260.80,5.776
261.00,5.77
261.20,5.794
261.40,5.788
261.60,5.788
261.80,5.816
262.00,5.794
262.20,5.788
262.40,5.786
262.60,5.808
262.80,5.794
263.00,5.744
263.20,5.838
263.40,5.806
263.60,5.754
263.80,5.816
264.00,5.798
264.20,5.794
264.40,5.77
264.60,5.806
264.80,5.792
265.00,5.82
265.20,5.742
265.40,5.844
265.60,5.802
265.80,5.772
266.00,5.814
266.20,5.81
266.40,5.764
266.60,5.806
266.80,5.754
267.00,5.836
267.20,5.806
267.40,5.808
267.60,5.794
267.80,5.802
268.00,5.78
268.20,5.808
268.40,5.806
268.60,5.762
268.80,5.82
269.00,5.808
269.20,5.806
269.40,5.802
269.60,5.82
269.80,5.778
270.00,5.788
270.20,5.82
270.40,5.784
270.60,5.83
270.80,5.854
271.00,5.77
271.20,5.786
271.40,5.806
271.60,5.852
271.80,5.788
272.00,5.776
272.20,5.814
272.40,5.784
272.60,5.798
272.80,5.794
273.00,5.82
273.20,5.902
273.40,5.72
273.60,5.794
273.80,5.836
274.00,5.772
274.20,5.83
274.40,5.786
274.60,5.784
274.80,5.814
275.00,5.798
275.20,5.77
275.40,5.792
275.60,5.814
275.80,5.814
276.00,5.814
276.20,5.786
276.40,5.798
276.60,5.798
276.80,5.772
277.00,5.814
277.20,5.758
277.40,5.816
277.60,5.792
277.80,5.798
278.00,5.764
278.20,5.798
278.40,5.824
278.60,5.81
278.80,5.786
279.00,5.764
279.20,5.814
279.40,5.82
279.60,5.776
279.80,5.778
280.00,5.814
280.20,5.794
280.40,5.786
280.60,5.778
280.80,5.788
281.00,5.794
281.20,5.816
281.40,5.77
281.60,5.832
281.80,5.742
282.00,5.784
282.20,5.8
282.40,5.784
282.60,5.806
282.80,5.786
283.00,5.798
283.20,5.824
283.40,5.808
283.60,5.754
283.80,5.77
284.00,5.776
284.20,5.798
284.40,5.846
284.60,5.802
284.80,5.808
285.00,5.788
285.20,5.8
285.40,5.852
285.60,5.786
285.80,5.786
286.00,5.792
286.20,5.842
286.40,5.778
286.60,5.836
286.80,5.82
287.00,5.776
287.20,5.814
287.40,5.754
287.60,5.844
287.80,5.794
288.00,5.82
288.20,5.874
288.40,5.776
288.60,5.78
288.80,5.792
289.00,5.766
289.20,5.798
289.40,5.798
289.60,5.808
289.80,5.822
290.00,5.788
290.20,5.838
290.40,5.78
290.60,5.802
290.80,5.822
291.20,5.762
291.40,5.812
291.60,5.796
291.80,5.776
292.00,5.782
292.20,5.814
292.40,5.798
292.60,5.79
292.80,5.85
293.00,5.752
293.20,5.788
293.40,5.79
293.60,5.802
293.80,5.798
294.00,5.776
294.20,5.804
294.40,5.812
294.60,5.804
294.80,5.73
295.00,5.788
295.20,5.82
295.40,5.78
295.60,5.774
295.80,5.784
296.00,5.802
296.20,5.746
296.40,5.798
296.60,5.834
296.80,5.79
297.00,5.814
297.20,5.732
297.40,5.806
297.60,5.842
297.80,5.768
298.00,5.754
298.20,5.774
298.40,5.814
298.60,5.81
298.80,5.766
299.00,5.79
299.20,5.748
299.40,5.79
299.60,5.784
299.80,5.79
300.00,5.804
300.20,5.782
300.40,5.784
300.60,5.836
300.80,5.782
301.00,5.732
301.20,5.818
301.40,5.774
301.60,5.78
301.80,5.832
302.00,5.828
302.20,5.762
302.40,5.832
302.60,5.824
302.80,5.788
303.00,5.78
303.20,5.798
303.40,5.792
303.60,5.82
303.80,5.836
304.00,5.762
304.20,5.824
304.40,5.788
304.60,5.788
304.80,5.826
305.00,5.814
305.20,5.806
305.40,5.812
305.60,5.824
305.80,5.752
306.00,5.792
306.20,5.81
306.40,5.906
306.60,5.762
306.80,5.81
307.00,5.782
307.20,5.768
307.40,5.818
307.60,5.754
307.80,5.824
308.00,5.78
308.20,5.814
308.40,5.774
308.60,5.806
308.80,5.738
309.00,5.814
309.20,5.812
309.40,5.806
309.60,5.784
309.80,5.824
310.00,5.748
310.20,5.798
310.40,5.762
310.60,5.824
310.80,5.76
311.00,5.744
311.20,5.82
311.40,5.78
311.60,5.832
311.80,5.784
312.00,5.754
312.20,5.784
312.40,5.814
312.60,5.784
312.80,5.792
313.00,5.774
313.20,5.802
313.40,5.818
313.60,5.76
313.80,5.736
314.00,5.828
314.20,5.814
314.40,5.792
314.60,5.818
314.80,5.79
315.00,5.776
315.20,5.77
315.40,5.768
315.60,5.806
315.80,5.836
316.00,5.784
316.20,5.79
316.40,5.792
316.60,5.776
316.80,5.79
317.00,5.798
317.20,5.776
317.40,5.804
317.60,5.802
317.80,5.774
318.00,5.782
318.20,5.828
318.40,5.812
318.60,5.798
318.80,5.824
319.00,5.788
319.20,5.818
319.40,5.784
319.60,5.768
319.80,5.802
320.00,5.824
320.20,5.81
320.40,5.77
320.60,5.802
320.80,5.796
321.00,5.826
321.20,5.804
321.40,5.79
321.60,5.774
321.80,5.798
322.00,5.812
322.20,5.784
322.40,5.776
322.60,5.802
322.80,5.802
323.00,5.818
323.20,5.802
323.40,5.818
323.60,5.806
323.80,5.76
324.00,5.834
324.20,5.78
324.40,5.908
324.60,5.71
324.80,5.806
325.00,5.802
325.20,5.796
325.40,5.792
325.60,5.782
325.80,5.774
326.00,5.812
326.20,5.798
326.40,5.79
326.60,5.802
326.80,5.754
327.00,5.766
327.20,5.78
327.40,5.836
327.60,5.768
327.80,5.776
328.00,5.758
328.20,5.818
328.40,5.802
328.60,5.792
328.80,5.77
329.00,5.758
329.20,5.782
329.40,5.806
329.60,5.782
329.80,5.762
330.00,5.824
330.20,5.776
330.40,5.768
330.60,5.76
330.80,5.796
331.00,5.776
331.20,5.788
331.40,5.818
331.60,5.754
331.80,5.788
332.00,5.826
332.20,5.796
332.40,5.78
332.60,5.796
332.80,5.784
333.00,5.758
333.20,5.784
333.40,5.832
333.60,5.784
333.80,5.782
334.00,5.792
334.20,5.798
334.40,5.774
334.60,5.752
334.80,5.832
335.00,5.818
335.20,5.784
335.40,5.804
335.60,5.796
335.80,5.818
336.00,5.766
336.20,5.82
336.40,5.818
336.60,5.79
336.80,5.814
337.00,5.768
337.20,5.784
337.40,5.806
337.60,5.782
337.80,5.776
338.00,5.81
338.20,5.798
338.40,5.814
338.60,5.744
338.80,5.804
339.00,5.818
339.20,5.812
339.40,5.828
339.60,5.766
339.80,5.796
340.00,5.814
340.20,5.76
340.40,5.774
340.60,5.804
340.80,5.806
341.00,5.806
341.20,5.792
341.40,5.768
341.60,5.79
341.80,5.788
342.00,5.798
342.20,5.776
342.40,5.886
342.60,5.68
342.80,5.818
343.00,5.776
343.20,5.806
343.40,5.768
343.60,5.796
343.80,5.76
344.00,5.79
344.20,5.738
344.40,5.856
344.60,5.774
344.80,5.77
345.00,5.82
345.20,5.762
345.40,5.766
345.60,5.77
345.80,5.79
346.00,5.79
346.20,5.754
346.40,5.782
346.60,5.774
346.80,5.788
347.00,5.814
347.20,5.784
347.40,5.792
347.60,5.798
347.80,5.79
348.00,5.78
348.20,5.818
348.40,5.754
348.60,5.788
348.80,5.806
349.00,5.76
349.20,5.78
349.40,5.848
349.60,5.804
349.80,5.776
350.00,5.806
350.20,5.802
350.40,5.758
350.60,5.788
350.80,5.782
351.00,5.828
351.20,5.754
351.40,5.798
351.60,5.81
351.80,5.84
352.00,5.776
352.20,5.81
352.40,5.784
352.60,5.792
352.80,5.81
353.00,5.846
353.20,5.748
353.40,5.81
353.60,5.792
353.80,5.776
354.00,5.776
354.20,5.82
354.40,5.798
354.60,5.776
354.80,5.796
355.00,5.824
355.20,5.788
355.40,5.79
355.60,5.814
355.80,5.766
356.00,5.826
356.20,5.826
356.40,5.762
356.60,5.788
356.80,5.788
357.00,5.77
357.20,5.828
357.40,5.792
357.60,5.78
357.80,5.828
358.00,5.796
358.20,5.85
358.40,5.762
358.60,5.79
358.80,5.774
359.00,5.802
359.20,5.768
359.40,5.796
359.60,5.77
359.80,5.826
360.00,5.748
360.20,5.814
360.40,5.85
360.60,5.708
360.80,5.768
361.00,5.806
361.20,5.806
361.40,5.752
361.60,5.804
361.80,5.814
362.00,5.754
362.20,5.81
362.40,5.754
362.60,5.762
362.80,5.784
363.00,5.818
363.20,5.78
363.40,5.802
363.60,5.79
363.80,5.77
364.00,5.766
364.20,5.826
364.40,5.802
364.60,5.784
364.80,5.782
365.00,5.758
365.20,5.796
365.40,5.766
365.60,5.806
365.80,5.806
366.00,5.834
366.20,5.788
366.40,5.762
366.60,5.768
366.80,5.798
367.00,5.84
367.20,5.762
367.40,5.82
367.60,5.792
367.80,5.774
368.00,5.79
368.20,5.774
368.40,5.812
368.60,5.766
368.80,5.79
369.00,5.776
369.20,5.79
369.40,5.798
369.60,5.818
369.80,5.812
370.00,5.818
370.20,5.798
370.40,5.796
370.60,5.776
370.80,5.818
371.00,5.818
371.20,5.792
371.40,5.762
371.60,5.862
371.80,5.736
372.00,5.81
372.20,5.812
372.40,5.754
372.60,5.802
372.80,5.792
373.00,5.788
373.20,5.804
373.40,5.806
373.60,5.792
373.80,5.776
374.00,5.832
374.20,5.81
374.40,5.806
374.60,5.768
374.80,5.774
375.00,5.784
375.20,5.78
375.40,5.802
375.60,5.784
375.80,5.828
376.00,5.784
376.20,5.782
376.40,5.746
376.60,5.818
376.80,5.796
377.00,5.754
377.20,5.79
377.40,5.782
377.60,5.804
377.80,5.798
378.00,5.776
378.20,5.768
378.40,5.862
378.60,5.68
378.80,5.774
379.00,5.81
379.20,5.768
379.40,5.774
379.60,5.804
379.80,5.79
380.00,5.792
380.20,5.738
380.40,5.792
380.60,5.802
380.80,5.766
381.00,5.818
381.20,5.796
381.40,5.768
381.60,5.774
381.80,5.748
382.00,5.804
382.20,5.796
382.40,5.748
382.60,5.788
382.80,5.824
383.00,5.806
383.20,5.732
383.40,5.832
383.60,5.754
383.80,5.792
384.00,5.724
384.20,5.828
384.40,5.744
384.60,5.812
384.80,5.806
385.00,5.802
385.20,5.824
385.40,5.788
385.60,5.798
385.80,5.762
386.00,5.818
386.20,5.796
386.40,5.824
386.60,5.792
386.80,5.782
387.00,5.782
387.20,5.79
387.40,5.818
387.60,5.842
387.80,5.806
388.00,5.784
388.20,5.758
388.40,5.814
388.60,5.788
388.80,5.792
389.00,5.782
389.20,5.806
389.40,5.796
389.60,5.788
389.80,5.79
390.00,5.796
390.20,5.796
390.40,5.744
390.60,5.784
390.80,5.858
391.00,5.798
391.20,5.802
391.40,5.804
391.60,5.798
391.80,5.774
392.00,5.806
392.20,5.798
392.40,5.796
392.60,5.74
392.80,5.818
393.00,5.798
393.20,5.766
393.40,5.746
393.60,5.798
393.80,5.806
394.00,5.774
394.20,5.804
394.40,5.79
394.60,5.76
394.80,5.79
395.00,5.798
395.20,5.766
395.40,5.762
395.60,5.768
395.80,5.784
396.00,5.758
396.20,5.78
396.40,5.846
396.60,5.688
396.80,5.768
397.00,5.792
397.20,5.788
397.40,5.792
397.60,5.774
397.80,5.768
398.00,5.824
398.20,5.776
398.40,5.804
398.60,5.768
398.80,5.776
399.00,5.818
399.20,5.812
399.40,5.776
399.60,5.768
399.80,5.788
400.00,5.826
400.20,5.744
400.40,5.776
400.60,5.82
400.80,5.76
401.00,5.798
401.20,5.804
401.40,5.782
401.60,5.774
401.80,5.784
402.00,5.824
402.20,5.802
402.40,5.792
402.60,5.804
402.80,5.796
403.00,5.748
403.20,5.824
403.40,5.796
403.60,5.812
403.80,5.798
404.00,5.818
404.20,5.762
404.40,5.806
404.60,5.79
404.80,5.792
405.00,5.804
405.20,5.774
405.40,5.776
405.60,5.762
405.80,5.818
406.00,5.776
406.20,5.806
406.40,5.798
406.60,5.77
406.80,5.828
407.00,5.806
407.20,5.74
407.40,5.836
407.60,5.784
407.80,5.818
408.00,5.782
408.20,5.784
408.40,5.784
408.60,5.82
408.80,5.79
409.00,5.766
409.20,5.836
409.40,5.752
409.60,5.798
409.80,5.782
410.00,5.806
410.20,5.724
410.40,5.788
410.60,5.782
410.80,5.758
411.00,5.784
411.20,5.804
411.40,5.78
411.60,5.792
411.80,5.81
412.00,5.754
412.20,5.782
412.40,5.744
412.60,5.792
412.80,5.814
413.00,5.766
413.20,5.78
413.40,5.804
413.60,5.744
413.80,5.79
414.00,5.788
414.20,5.77
414.40,5.842
414.60,5.7
414.80,5.812
415.00,5.81
415.20,5.792
415.40,5.74
415.60,5.77
415.80,5.752
416.00,5.776
416.20,5.78
416.40,5.79
416.60,5.804
416.80,5.788
417.00,5.826
417.20,5.806
417.40,5.798
417.60,5.758
417.80,5.736
418.00,5.792
418.20,5.784
418.40,5.806
418.60,5.784
418.80,5.81
419.00,5.748
419.20,5.776
419.40,5.806
419.60,5.784
419.80,5.788
420.00,5.834
420.20,5.806
420.40,5.788
420.60,5.776
420.80,5.79
421.00,5.792
421.20,5.81
421.40,5.79
421.60,5.802
421.80,5.834
422.00,5.762
422.20,5.84
422.40,5.762
422.60,5.754
422.80,5.782
423.00,5.818
423.20,5.768
423.40,5.792
423.60,5.814
423.80,5.806
424.00,5.77
424.20,5.776
424.40,5.826
424.60,5.804
424.80,5.768
425.00,5.788
425.20,5.774
425.40,5.802
425.60,5.806
425.80,5.754
426.00,5.802
426.20,5.752
426.40,5.776
426.60,5.774
426.80,5.804
427.00,5.774
427.20,5.768
427.40,5.828
427.60,5.748
427.80,5.78
428.00,5.768
428.20,5.818
428.40,5.766
428.60,5.766
428.80,5.754
429.00,5.788
429.20,5.788
429.40,5.776
429.60,5.78
429.80,5.78
430.00,5.804
430.20,5.74
430.40,5.774
430.60,5.792
430.80,5.792
431.00,5.784
431.20,5.796
431.40,5.762
431.60,5.766
431.80,5.812
432.00,5.784
432.20,5.754
432.40,5.864
432.60,5.722
432.80,5.782
433.00,5.81
433.20,5.76
433.40,5.762
433.60,5.818
433.80,5.776
434.00,5.806
434.20,5.78
434.40,5.768
434.60,5.796
434.80,5.81
435.00,5.774
435.20,5.798
435.40,5.766
435.60,5.804
435.80,5.82
436.00,5.81
436.20,5.846
436.40,5.738
436.60,5.766
436.80,5.802
437.00,5.834
437.20,5.78
437.40,5.802
437.60,5.818
437.80,5.746
438.00,5.802
438.20,5.784
438.40,5.792
438.60,5.82
438.80,5.776
439.00,5.79
439.20,5.796
439.40,5.784
439.60,5.788
439.80,5.806
440.00,5.798
440.20,5.802
440.40,5.78
440.60,5.79
440.80,5.796
441.00,5.798
441.20,5.77
441.40,5.788
441.60,5.802
441.80,5.77
442.00,5.782
442.20,5.774
442.40,5.806
442.60,5.774
442.80,5.784
443.00,5.802
443.20,5.788
443.40,5.768
443.60,5.774
443.80,5.792
444.00,5.782
444.20,5.796
444.40,5.74
444.60,5.818
444.80,5.7
445.00,5.85
445.20,5.792
445.40,5.782
445.60,5.774
445.80,5.752
446.00,5.85
446.20,5.74
446.40,5.736
446.60,5.766
446.80,5.828
447.00,5.788
447.20,5.758
447.40,5.78
447.60,5.766
447.80,5.784
448.00,5.784
448.20,5.81
448.40,5.754
448.60,5.79
448.80,5.812
449.00,5.79
449.20,5.784
449.40,5.784
449.60,5.762
449.80,5.77
450.00,5.828
450.20,5.768
450.40,5.848
450.60,5.73
450.80,5.82
451.00,5.762
451.20,5.798
451.40,5.78
451.60,5.732
451.80,5.814
452.00,5.79
452.20,5.782
452.40,5.806
452.60,5.758
452.80,5.798
453.00,5.79
453.20,5.798
453.40,5.77
453.60,5.78
453.80,5.842
454.00,5.804
454.20,5.788
454.40,5.82
454.60,5.762
454.80,5.806
455.00,5.752
455.20,5.818
455.40,5.738
455.60,5.81
455.80,5.828
456.00,5.81
456.20,5.79
456.40,5.79
456.60,5.812
456.80,5.788
457.00,5.762
457.20,5.788
457.40,5.79
457.60,5.806
457.80,5.78
458.00,5.762
458.20,5.796
458.40,5.812
458.60,5.788
458.80,5.802
459.00,5.77
459.20,5.774
459.40,5.796
459.60,5.804
459.80,5.796
460.00,5.726
460.20,5.806
460.40,5.802
460.60,5.748
460.80,5.79
461.00,5.804
461.20,5.78
461.40,5.77
461.60,5.776
461.80,5.762
462.00,5.78
462.20,5.798
462.40,5.774
462.60,5.77
462.80,5.798
463.00,5.748
463.20,5.78
463.40,5.77
463.60,5.812
463.80,5.77
464.00,5.754
464.20,5.846
464.40,5.758
464.60,5.79
464.80,5.758
465.00,5.792
465.20,5.782
465.40,5.768
465.60,5.776
465.80,5.812
466.00,5.774
466.20,5.774
466.40,5.798
466.60,5.77
466.80,5.782
467.00,5.78
467.20,5.796
467.40,5.814
467.60,5.762
467.80,5.768
468.00,5.818
468.20,5.788
468.40,5.878
468.60,5.692
468.80,5.766
469.00,5.84
469.20,5.76
469.40,5.77
469.60,5.802
469.80,5.768
470.00,5.792
470.20,5.806
470.40,5.738
470.60,5.796
470.80,5.826
471.00,5.774
471.20,5.824
471.40,5.784
471.60,5.784
471.80,5.796
472.00,5.814
472.20,5.77
472.40,5.768
472.60,5.81
472.80,5.788
473.00,5.818
473.20,5.766
473.40,5.748
473.60,5.784
473.80,5.774
474.00,5.834
474.20,5.788
474.40,5.804
474.60,5.792
474.80,5.752
475.00,5.81
475.20,5.832
475.40,5.806
475.60,5.762
475.80,5.738
476.00,5.796
476.20,5.754
476.40,5.79
476.60,5.798
476.80,5.758
477.00,5.79
477.20,5.78
477.40,5.79
477.60,5.788
477.80,5.776
478.00,5.798
478.20,5.746
478.40,5.782
478.60,5.76
478.80,5.796
479.00,5.738
479.20,5.782
479.40,5.854
479.60,5.792
479.80,5.768
480.00,5.768
480.20,5.758
480.40,5.766
480.60,5.762
480.80,5.79
481.00,5.812
481.20,5.788
481.40,5.798
481.60,5.754
481.80,5.77
482.00,5.768
482.20,5.79
482.40,5.746
482.60,5.79
482.80,5.762
483.00,5.782
483.20,5.848
483.40,5.744
483.60,5.81
483.80,5.78
484.00,5.802
484.20,5.804
484.40,5.828
484.60,5.792
484.80,5.736
485.00,5.81
485.20,5.784
485.40,5.802
485.60,5.79
485.80,5.77
486.00,5.818
486.20,5.792
486.40,5.878
486.60,5.686
486.80,5.766
487.00,5.796
487.20,5.78
487.40,5.788
487.60,5.826
487.80,5.818
488.00,5.814
488.20,5.752
488.40,5.788
488.60,5.796
488.80,5.744
489.00,5.804
489.20,5.796
489.40,5.768
489.60,5.78
489.80,5.868
490.00,5.76
490.20,5.798
490.40,5.814
490.60,5.752
490.80,5.782
491.00,5.74
491.20,5.806
491.40,5.78
491.60,5.824
491.80,5.804
492.00,5.774
492.20,5.776
492.40,5.802
492.60,5.77
492.80,5.766
493.00,5.74
493.20,5.762
493.40,5.85
493.60,5.788
493.80,5.78
494.00,5.788
494.20,5.77
494.40,5.746
494.60,5.748
494.80,5.796
495.00,5.788
495.20,5.824
495.40,5.796
495.60,5.714
495.80,5.842
496.00,5.758
496.20,5.776
496.40,5.76
496.60,5.776
496.80,5.76
497.00,5.798
497.20,5.766
497.40,5.784
497.60,5.782
497.80,5.762
498.00,5.796
498.20,5.714
498.40,5.792
498.60,5.814
498.80,5.782
499.00,5.784
499.20,5.784
499.40,5.718
499.60,5.824
499.80,5.81
500.00,5.818
500.20,5.814
500.40,5.752
500.60,5.746
500.80,5.806
501.00,5.726
501.20,5.804
501.40,5.81
501.60,5.792
501.80,5.766
502.00,5.818
502.20,5.752
502.40,5.78
502.60,5.848
502.80,5.81
503.00,5.77
503.20,5.804
503.40,5.758
503.60,5.798
503.80,5.798
504.00,5.798
504.20,5.762
504.40,5.856
504.60,5.716
504.80,5.762
505.00,5.796
505.20,5.814
505.40,5.788
505.60,5.824
505.80,5.748
506.00,5.776
506.20,5.81
506.40,5.73
506.60,5.82
506.80,5.81
507.00,5.818
507.20,5.776
507.40,5.768
507.60,5.784
507.80,5.796
508.00,5.774
508.20,5.806
508.40,5.79
508.60,5.814
508.80,5.768
509.00,5.766
509.20,5.806
509.40,5.748
509.60,5.784
509.80,5.748
510.00,5.796
510.20,5.77
510.40,5.784
510.60,5.79
510.80,5.776
511.00,5.766
511.20,5.798
511.40,5.748
511.60,5.796
511.80,5.766
512.00,5.79
512.20,5.784
512.40,5.726
512.60,5.788
512.80,5.746
513.00,5.824
513.20,5.738
513.40,5.776
513.60,5.802
513.80,5.798
514.00,5.73
514.20,5.782
514.40,5.782
514.60,5.768
514.80,5.78
515.00,5.818
515.20,5.73
515.40,5.798
515.60,5.776
515.80,5.744
516.00,5.79
516.20,5.752
516.40,5.758
516.60,5.782
516.80,5.818
517.00,5.806
517.20,5.768
517.40,5.834
517.60,5.782
517.80,5.782
518.00,5.762
518.20,5.802
518.40,5.758
518.60,5.848
518.80,5.77
519.00,5.814
519.20,5.784
519.40,5.768
519.60,5.806
519.80,5.752
520.00,5.824
520.20,5.788
520.40,5.754
520.60,5.776
520.80,5.782
521.00,5.836
521.20,5.792
521.40,5.81
521.60,5.78
521.80,5.776
522.00,5.804
522.20,5.768
522.40,5.88
522.60,5.692
522.80,5.776
523.00,5.762
523.20,5.752
523.40,5.788
523.60,5.768
523.80,5.77
524.00,5.828
524.20,5.752
524.40,5.824
524.60,5.77
524.80,5.74
525.00,5.79
525.20,5.782
525.40,5.802
525.60,5.804
525.80,5.768
526.00,5.774
526.20,5.818
526.40,5.758
526.60,5.732
526.80,5.79
527.00,5.788
527.20,5.82
527.40,5.802
527.60,5.804
527.80,5.784
528.00,5.748
528.20,5.762
528.40,5.762
528.60,5.79
528.80,5.784
529.00,5.796
529.20,5.73
529.40,5.776
529.60,5.79
529.80,5.77
530.00,5.806
530.20,5.762
530.40,5.784
530.60,5.78
530.80,5.782
531.00,5.78
531.20,5.768
531.40,5.796
531.60,5.744
531.80,5.828
532.00,5.768
532.20,5.754
532.40,5.754
532.60,5.78
532.80,5.766
533.00,5.792
533.20,5.782
533.40,5.792
533.60,5.736
533.80,5.832
534.00,5.724
534.20,5.798
534.40,5.76
534.60,5.812
534.80,5.782
535.00,5.746
535.20,5.78
535.40,5.774
535.60,5.792
535.80,5.784
536.00,5.798
536.20,5.768
536.40,5.802
536.60,5.812
536.80,5.73
537.00,5.804
537.20,5.798
537.40,5.814
537.60,5.784
537.80,5.752
538.00,5.826
538.20,5.738
538.40,5.828
538.60,5.828
538.80,5.782
539.00,5.738
539.20,5.78
539.40,5.788
539.60,5.762
539.80,5.806
540.00,5.798
540.20,5.818
540.40,5.858
540.60,5.736
540.80,5.754
541.00,5.81
541.20,5.77
541.40,5.798
541.60,5.758
541.80,5.784
542.00,5.834
542.20,5.758
542.40,5.768
542.60,5.77
542.80,5.792
543.00,5.824
543.20,5.766
543.40,5.762
543.60,5.798
543.80,5.746
544.00,5.746
544.20,5.818
544.40,5.82
544.60,5.776
544.80,5.748
545.00,5.798
545.20,5.78
545.40,5.776
545.60,5.754
545.80,5.78
546.00,5.776
546.20,5.762
546.40,5.722
546.60,5.818
546.80,5.806
547.00,5.802
547.20,5.752
547.40,5.77
547.60,5.774
547.80,5.754
548.00,5.832
548.20,5.774
548.40,5.724
548.60,5.798
548.80,5.768
549.00,5.78
549.20,5.784
549.40,5.782
549.60,5.774
549.80,5.77
550.00,5.798
550.20,5.782
550.40,5.76
550.60,5.79
550.80,5.796
551.00,5.774
551.20,5.746
551.40,5.81
551.60,5.776
551.80,5.752
552.00,5.804
552.20,5.784
552.40,5.818
552.60,5.79
552.80,5.77
553.00,5.762
553.20,5.782
553.40,5.774
553.60,5.784
553.80,5.802
554.00,5.798
554.20,5.788
554.40,5.758
554.60,5.798
554.80,5.758
555.00,5.776
555.20,5.802
555.40,5.782
555.60,5.782
555.80,5.774
556.00,5.796
556.20,5.766
556.40,5.804
556.60,5.766
556.80,5.784
557.00,5.812
557.20,5.796
557.40,5.802
557.60,5.796
557.80,5.792
558.00,5.776
558.20,5.806
558.40,5.858
558.60,5.718
558.80,5.788
559.00,5.804
559.20,5.768
559.40,5.798
559.60,5.768
559.80,5.776
560.00,5.784
560.20,5.758
560.40,5.758
560.60,5.776
560.80,5.766
561.00,5.776
561.20,5.768
561.40,5.762
561.60,5.754
561.80,5.774
562.00,5.782
562.20,5.774
562.40,5.79
562.60,5.796
562.80,5.78
563.00,5.788
563.20,5.74
563.40,5.766
563.60,5.776
563.80,5.738
564.00,5.76
564.20,5.812
564.40,5.796
564.60,5.782
564.80,5.818
565.00,5.762
565.20,5.748
565.40,5.812
565.60,5.802
565.80,5.744
566.00,5.768
566.20,5.746
566.40,5.774
566.60,5.814
566.80,5.782
567.00,5.81
567.20,5.78
567.40,5.766
567.60,5.758
567.80,5.762
568.00,5.824
568.20,5.754
568.40,5.82
568.60,5.784
568.80,5.752
569.00,5.738
569.20,5.81
569.40,5.79
569.60,5.798
569.80,5.782
570.00,5.754
570.20,5.774
570.40,5.806
570.60,5.784
570.80,5.828
571.00,5.784
571.20,5.802
571.40,5.748
571.60,5.78
571.80,5.81
572.00,5.784
572.20,5.798
572.40,5.784
572.60,5.724
572.80,5.804
573.00,5.796
573.20,5.82
573.40,5.746
573.60,5.802
573.80,5.798
574.00,5.766
574.20,5.804
574.40,5.762
574.60,5.784
574.80,5.798
575.00,5.736
575.20,5.81
575.40,5.802
575.60,5.722
575.80,5.752
576.00,5.784
576.20,5.796
576.40,5.908
576.60,5.66
576.80,5.792
577.00,5.752
577.20,5.804
577.40,5.78
577.60,5.796
577.80,5.736
578.00,5.792
578.20,5.782
578.40,5.762
578.60,5.754
578.80,5.796
579.00,5.802
579.20,5.798
579.40,5.752
579.60,5.738
579.80,5.79
580.00,5.762
580.20,5.782
580.40,5.774
580.60,5.776
580.80,5.782
581.00,5.79
581.20,5.762
581.40,5.776
581.60,5.784
581.80,5.768
582.00,5.776
582.20,5.79
582.40,5.758
582.60,5.78
582.80,5.82
583.00,5.776
583.20,5.73
583.40,5.818
583.60,5.724
583.80,5.782
584.00,5.81
584.20,5.798
584.40,5.782
584.60,5.762
584.80,5.766
585.00,5.792
585.20,5.754
585.40,5.768
585.60,5.824
585.80,5.76
586.00,5.768
586.20,5.806
586.40,5.796
586.60,5.762
586.80,5.77
587.00,5.806
587.20,5.802
587.40,5.796
587.60,5.736
587.80,5.828
588.00,5.748
588.20,5.78
588.40,5.792
588.60,5.818
588.80,5.768
589.00,5.78
589.20,5.806
589.40,5.762
589.60,5.798
589.80,5.796
590.00,5.718
590.20,5.798
590.40,5.788
590.60,5.78
590.80,5.82
591.00,5.744
591.40,5.824
591.60,5.876
591.80,5.67
592.00,5.784
592.20,5.814
592.40,5.784
592.60,5.766
592.80,5.806
593.00,5.774
593.20,5.796
593.40,5.776
593.60,5.76
593.80,5.774
594.00,5.784
594.20,5.784
594.40,5.746
594.60,5.748
594.80,5.784
595.00,5.752
595.20,5.748
595.40,5.774
595.60,5.802
595.80,5.802
596.00,5.726
596.20,5.798
596.40,5.79
596.60,5.724
596.80,5.836
597.00,5.758
597.20,5.766
597.40,5.774
597.60,5.78
597.80,5.776
598.00,5.78
598.20,5.726
598.40,5.776
598.60,5.79
598.80,5.768
599.00,5.806
599.20,5.76
599.40,5.758
599.60,5.792
599.80,5.814
600.00,5.732
600.20,5.746
600.40,5.818
600.60,5.76
600.80,5.776
601.00,5.776
601.20,5.77
601.40,5.804
601.60,5.776
601.80,5.77
602.00,5.824
602.20,5.768
602.40,5.77
602.60,5.798
602.80,5.762
603.00,5.824
603.20,5.76
603.40,5.806
603.60,5.798
603.80,5.774
604.00,5.804
604.20,5.818
604.40,5.748
604.60,5.818
604.80,5.766
605.00,5.762
605.20,5.84
605.40,5.746
605.60,5.812
605.80,5.758
606.00,5.768
606.20,5.834
606.40,5.768
606.60,5.774
606.80,5.796
607.00,5.788
607.20,5.806
607.40,5.784
607.60,5.748
607.80,5.824
608.00,5.744
608.20,5.792
608.40,5.774
608.60,5.784
608.80,5.78
609.00,5.774
609.20,5.782
609.40,5.766
609.60,5.894
609.80,5.66
610.00,5.774
610.20,5.784
610.40,5.766
610.60,5.77
610.80,5.736
611.00,5.784
611.20,5.76
611.40,5.796
611.60,5.754
611.80,5.828
612.00,5.78
612.20,5.768
612.40,5.774
612.60,5.736
612.80,5.78
613.00,5.776
613.20,5.774
613.40,5.762
613.60,5.784
613.80,5.762
614.00,5.754
614.20,5.766
614.40,5.754
614.60,5.784
614.80,5.802
615.00,5.752
615.20,5.752
615.40,5.804
615.60,5.76
615.80,5.744
616.00,5.818
616.20,5.77
616.40,5.76
616.60,5.776
616.80,5.782
617.00,5.744
617.20,5.82
617.40,5.78
617.60,5.77
617.80,5.776
618.00,5.806
618.20,5.81
618.40,5.758
618.60,5.788
618.80,5.78
619.00,5.748
619.20,5.814
619.40,5.798
619.60,5.79
619.80,5.76
620.00,5.806
620.20,5.796
620.40,5.76
620.60,5.792
620.80,5.782
621.00,5.802
621.20,5.762
621.40,5.776
621.60,5.774
621.80,5.782
622.00,5.762
622.20,5.814
622.40,5.74
622.60,5.81
622.80,5.776
623.00,5.834
623.20,5.792
623.40,5.748
623.60,5.73
623.80,5.812
624.00,5.782
624.20,5.798
624.40,5.77
624.60,5.79
624.80,5.782
625.00,5.84
625.20,5.752
625.40,5.744
625.60,5.782
625.80,5.79
626.00,5.792
626.20,5.758
626.40,5.784
626.60,5.788
626.80,5.766
627.00,5.78
627.20,5.746
627.40,5.79
627.60,5.886
627.80,5.704
628.00,5.754
628.20,5.758
628.40,5.758
628.60,5.818
628.80,5.73
629.00,5.76
629.20,5.768
629.40,5.73
629.60,5.836
629.80,5.732
630.00,5.738
630.20,5.826
630.40,5.726
630.60,5.76
630.80,5.768
631.00,5.74
631.20,5.776
631.40,5.824
631.60,5.784
631.80,5.798
632.00,5.766
632.20,5.766
632.40,5.788
632.60,5.768
632.80,5.78
633.00,5.784
633.20,5.774
633.40,5.768
633.60,5.752
633.80,5.812
634.00,5.774
634.20,5.762
634.40,5.804
634.60,5.736
634.80,5.824
635.00,5.796
635.20,5.758
635.40,5.766
635.60,5.776
635.80,5.796
636.00,5.792
636.20,5.782
636.40,5.784
636.60,5.782
636.80,5.826
637.00,5.776
637.20,5.776
637.40,5.76
637.60,5.812
637.80,5.812
638.00,5.78
638.20,5.768
638.40,5.782
638.60,5.774
638.80,5.818
639.00,5.76
639.20,5.762
639.40,5.762
639.60,5.79
639.80,5.79
640.00,5.774
640.20,5.726
640.40,5.818
640.60,5.788
640.80,5.792
641.00,5.774
641.20,5.788
641.40,5.752
641.60,5.818
641.80,5.748
642.00,5.774
642.20,5.796
642.40,5.74
642.60,5.792
642.80,5.782
643.00,5.78
643.20,5.752
643.40,5.768
643.60,5.784
643.80,5.804
644.00,5.73
644.20,5.776
644.40,5.766
644.60,5.768
644.80,5.754
645.00,5.776
645.20,5.788
645.40,5.732
645.60,5.894
645.80,5.694
646.00,5.762
646.20,5.76
646.40,5.746
646.60,5.76
646.80,5.806
647.00,5.774
647.20,5.74
647.40,5.752
647.60,5.818
647.80,5.752
648.00,5.818
648.20,5.782
648.40,5.716
648.60,5.802
648.80,5.774
649.00,5.744
649.20,5.792
649.40,5.796
649.60,5.758
649.80,5.81
650.00,5.76
650.20,5.79
650.40,5.768
650.60,5.766
650.80,5.81
651.00,5.774
651.20,5.768
651.40,5.714
651.60,5.842
651.80,5.758
652.00,5.782
652.20,5.792
652.40,5.774
652.60,5.788
652.80,5.766
653.00,5.754
653.20,5.818
653.40,5.792
653.60,5.812
653.80,5.774
654.00,5.784
654.20,5.746
654.40,5.812
654.60,5.796
654.80,5.782
655.00,5.76
655.20,5.796
655.40,5.776
655.60,5.796
655.80,5.814
656.00,5.784
656.20,5.762
656.40,5.782
656.60,5.784
656.80,5.784
657.00,5.762
657.20,5.78
657.40,5.802
657.60,5.806
657.80,5.74
658.00,5.776
658.20,5.76
658.40,5.792
658.60,5.758
658.80,5.802
659.00,5.788
659.20,5.806
659.40,5.736
659.60,5.806
659.80,5.744
660.00,5.768
660.20,5.744
660.40,5.788
660.60,5.736
660.80,5.802
661.00,5.766
661.20,5.792
661.40,5.754
661.60,5.766
661.80,5.776
662.00,5.77
662.20,5.77
662.40,5.804
662.60,5.768
662.80,5.704
663.00,5.78
663.20,5.762
663.40,5.746
663.60,5.894
663.80,5.66
664.00,5.782
664.20,5.752
664.40,5.782
664.60,5.792
664.80,5.804
665.00,5.736
665.20,5.77
665.40,5.76
665.60,5.746
665.80,5.802
666.00,5.758
666.20,5.802
666.40,5.774
666.60,5.766
666.80,5.804
667.00,5.738
667.20,5.766
667.40,5.774
667.60,5.81
667.80,5.804
668.00,5.768
668.20,5.784
668.40,5.758
668.60,5.776
668.80,5.788
669.00,5.82
669.20,5.796
669.40,5.784
669.60,5.774
669.80,5.766
670.00,5.762
670.20,5.812
670.40,5.78
670.60,5.74
670.80,5.82
671.00,5.774
671.20,5.782
671.40,5.792
671.60,5.79
671.80,5.766
672.00,5.782
672.20,5.802
672.40,5.782
672.60,5.804
672.80,5.776
673.00,5.788
673.20,5.766
673.40,5.792
673.60,5.796
673.80,5.802
674.00,5.762
674.20,5.782
674.40,5.78
674.60,5.776
674.80,5.77
675.00,5.752
675.20,5.78
675.40,5.766
675.60,5.812
675.80,5.804
676.00,5.736
676.20,5.79
676.40,5.798
676.60,5.788
676.80,5.774
677.00,5.744
677.20,5.798
677.40,5.73
677.60,5.77
677.80,5.76
678.00,5.776
678.20,5.766
678.40,5.788
678.60,5.766
678.80,5.694
679.00,5.798
679.20,5.758
679.40,5.768
679.60,5.81
679.80,5.76
680.00,5.796
680.20,5.774
680.40,5.724
680.60,5.752
680.80,5.746
681.00,5.812
681.20,5.726
681.40,5.784
681.60,5.862
681.80,5.714
682.00,5.752
682.20,5.766
682.40,5.792
682.60,5.774
682.80,5.79
683.00,5.752
683.20,5.73
683.40,5.796
683.60,5.768
683.80,5.798
684.00,5.784
684.20,5.744
684.40,5.81
684.60,5.818
684.80,5.714
685.00,5.796
685.20,5.782
685.40,5.774
685.60,5.744
685.80,5.802
686.00,5.776
686.20,5.806
686.40,5.804
686.60,5.78
686.80,5.788
687.00,5.796
687.20,5.744
687.40,5.782
687.60,5.806
687.80,5.758
688.00,5.802
688.20,5.724
688.40,5.802
688.60,5.78
688.80,5.76
689.00,5.814
689.20,5.78
689.40,5.738
689.60,5.806
689.80,5.754
690.00,5.774
690.20,5.768
690.40,5.76
690.60,5.812
690.80,5.74
691.00,5.804
691.20,5.738
691.40,5.788
691.60,5.74
691.80,5.828
692.00,5.74
692.20,5.768
692.40,5.776
692.60,5.782
692.80,5.766
693.00,5.798
693.20,5.766
693.40,5.788
693.60,5.74
693.80,5.752
694.00,5.768
694.20,5.812
694.40,5.78
694.60,5.758
694.80,5.748
695.00,5.74
695.20,5.79
695.40,5.762
695.60,5.768
695.80,5.768
696.00,5.754
696.20,5.738
696.40,5.77
696.60,5.774
696.80,5.806
697.00,5.732
697.20,5.806
697.40,5.776
697.60,5.776
697.80,5.738
698.00,5.774
698.20,5.784
698.40,5.782
698.60,5.782
698.80,5.788
699.00,5.776
699.20,5.776
699.40,5.768
699.60,5.872
699.80,5.708
700.00,5.758
700.20,5.804
700.40,5.79
700.60,5.744
700.80,5.782
701.00,5.806
701.20,5.782
701.40,5.752
701.60,5.74
701.80,5.788
702.00,5.802
702.20,5.77
702.40,5.776
702.60,5.788
702.80,5.766
703.00,5.792
703.20,5.784
703.40,5.736
703.60,5.776
703.80,5.812
704.00,5.768
704.20,5.806
704.40,5.79
704.60,5.77
704.80,5.782
705.00,5.78
705.20,5.744
705.40,5.79
705.60,5.804
705.80,5.79
706.00,5.818
706.20,5.814
706.40,5.76
706.60,5.754
706.80,5.746
707.00,5.798
707.20,5.774
707.40,5.82
707.60,5.738
707.80,5.746
708.00,5.77
708.20,5.796
708.40,5.776
708.60,5.782
708.80,5.802
709.00,5.78
709.20,5.796
709.40,5.76
709.60,5.746
709.80,5.796
710.00,5.762
710.20,5.758
710.40,5.774
710.60,5.73
710.80,5.796
711.00,5.768
711.20,5.784
711.40,5.766
711.60,5.792
711.80,5.746
712.00,5.718
712.20,5.798
712.40,5.776
712.60,5.82
712.80,5.752
713.00,5.78
713.20,5.746
713.40,5.784
713.60,5.78
713.80,5.766
714.00,5.768
714.20,5.746
714.40,5.79
714.60,5.738
714.80,5.802
715.00,5.782
715.20,5.768
715.40,5.762
715.60,5.814
715.80,5.732
716.00,5.79
716.20,5.768
716.40,5.718
716.60,5.738
716.80,5.768
717.00,5.76
717.20,5.782
717.40,5.812
717.60,5.84
717.80,5.66
718.00,5.792
718.20,5.818
718.40,5.788
718.60,5.752
718.80,5.81
719.00,5.726
719.20,5.818
719.40,5.774
719.60,5.804
719.80,5.762
720.00,5.788
720.20,5.806
720.40,5.768
720.60,5.774
720.80,5.782
721.00,5.812
721.20,5.788
721.40,5.804
721.60,5.776
721.80,5.792
722.00,5.736
722.20,5.784
722.40,5.758
722.60,5.776
722.80,5.798
723.00,5.79
723.20,5.78
723.40,5.782
723.60,5.812
723.80,5.812
724.00,5.74
724.20,5.762
724.40,5.774
724.60,5.79
724.80,5.768
725.00,5.738
725.20,5.814
725.40,5.748
725.60,5.768
725.80,5.784
726.00,5.784
726.20,5.77
726.40,5.782
726.60,5.78
726.80,5.744
727.00,5.766
727.20,5.77
727.40,5.768
727.60,5.804
727.80,5.762
728.00,5.78
728.20,5.738
728.40,5.748
728.60,5.766
728.80,5.732
729.00,5.776
729.20,5.824
729.40,5.776
729.60,5.736
729.80,5.792
730.00,5.784
730.20,5.74
730.40,5.74
730.60,5.792
730.80,5.748
731.00,5.784
731.20,5.74
731.40,5.792
731.60,5.736
731.80,5.776
732.00,5.818
732.20,5.746
732.40,5.768
732.60,5.74
732.80,5.754
733.00,5.802
733.20,5.796
733.40,5.762
733.60,5.758
733.80,5.766
734.00,5.774
734.20,5.782
734.40,5.77
734.60,5.754
734.80,5.782
735.00,5.802
735.20,5.824
735.40,5.748
735.60,5.834
735.80,5.656
736.00,5.826
736.20,5.732
736.40,5.78
736.60,5.774
736.80,5.762
737.00,5.814
737.20,5.782
737.40,5.802
737.60,5.804
737.80,5.79
738.00,5.76
738.20,5.802
738.40,5.804
738.60,5.738
738.80,5.746
739.00,5.776
739.20,5.806
739.40,5.81
739.60,5.758
739.80,5.776
740.00,5.732
740.20,5.78
740.40,5.754
740.60,5.77
740.80,5.784
741.00,5.802
741.20,5.766
741.40,5.76
741.60,5.776
741.80,5.754
742.00,5.776
742.20,5.748
742.40,5.79
742.60,5.762
742.80,5.768
743.00,5.784
743.20,5.792
743.40,5.754
743.60,5.736
743.80,5.776
744.00,5.74
744.20,5.758
744.40,5.774
744.60,5.796
744.80,5.752
745.00,5.746
745.20,5.776
745.40,5.782
745.60,5.752
745.80,5.76
746.00,5.766
746.20,5.76
746.40,5.752
746.60,5.766
746.80,5.768
747.00,5.754
747.20,5.738
747.40,5.774
747.60,5.758
747.80,5.782
748.00,5.79
748.20,5.762
748.40,5.804
748.60,5.77
748.80,5.736
749.00,5.76
749.20,5.746
749.40,5.782
749.60,5.79
749.80,5.79
750.00,5.738
750.20,5.752
750.40,5.726
750.60,5.802
750.80,5.744
751.00,5.782
751.20,5.792
751.40,5.762
751.60,5.798
751.80,5.77
752.00,5.784
752.20,5.762
752.40,5.798
752.60,5.768
752.80,5.812
753.00,5.784
753.20,5.76
753.40,5.754
753.60,5.9
753.80,5.694
754.00,5.78
754.20,5.768
754.40,5.79
754.60,5.768
754.80,5.77
755.00,5.726
755.20,5.792
755.40,5.76
755.60,5.806
755.80,5.748
756.00,5.784
756.20,5.77
756.40,5.762
756.60,5.77
756.80,5.774
757.00,5.766
757.20,5.774
757.40,5.762
757.60,5.79
757.80,5.774
758.00,5.78
758.20,5.76
758.40,5.768
758.60,5.752
758.80,5.802
759.00,5.766
759.20,5.726
759.40,5.82
759.60,5.766
759.80,5.726
760.00,5.754
760.20,5.796
760.40,5.732
760.60,5.768
760.80,5.782
761.00,5.788
761.20,5.762
761.40,5.79
761.60,5.736
761.80,5.76
762.00,5.736
762.20,5.78
762.40,5.796
762.60,5.754
762.80,5.748
763.00,5.762
763.20,5.746
763.40,5.792
763.60,5.758
763.80,5.792
764.00,5.738
764.20,5.788
764.40,5.74
764.60,5.812
764.80,5.78
765.00,5.762
765.20,5.738
765.40,5.748
765.60,5.78
765.80,5.774
766.00,5.79
766.20,5.766
766.40,5.806
766.60,5.78
766.80,5.754
767.00,5.726
767.20,5.774
767.40,5.782
767.60,5.766
767.80,5.824
768.00,5.78
768.20,5.76
768.40,5.714
768.60,5.802
768.80,5.792
769.00,5.752
769.20,5.746
769.40,5.754
769.60,5.79
769.80,5.754
770.00,5.758
770.20,5.806
770.40,5.81
770.60,5.798
770.80,5.768
771.00,5.804
771.20,5.76
771.40,5.788
771.60,5.848
771.80,5.7
772.00,5.758
772.20,5.776
772.40,5.766
772.60,5.78
772.80,5.762
773.00,5.814
773.20,5.818
773.40,5.704
773.60,5.782
773.80,5.748
774.00,5.74
774.20,5.836
774.40,5.826
774.60,5.766
774.80,5.732
775.00,5.784
775.20,5.748
775.40,5.814
775.60,5.768
775.80,5.752
776.00,5.784
776.20,5.736
776.40,5.744
776.60,5.792
776.80,5.784
777.00,5.774
777.20,5.71
777.40,5.76
777.60,5.804
777.80,5.726
778.00,5.782
778.20,5.746
778.40,5.81
778.60,5.732
778.80,5.766
779.00,5.784
779.20,5.754
779.40,5.77
779.60,5.788
779.80,5.766
780.00,5.732
780.20,5.748
780.40,5.788
780.60,5.76
780.80,5.704
781.00,5.774
781.20,5.782
781.40,5.768
781.60,5.782
781.80,5.784
782.00,5.754
782.20,5.784
782.40,5.718
782.60,5.784
782.80,5.818
783.00,5.762
783.20,5.762
783.40,5.79
783.60,5.774
783.80,5.77
784.00,5.746
784.20,5.788
784.40,5.762
784.60,5.738
784.80,5.738
785.00,5.768
785.20,5.828
785.40,5.774
785.60,5.766
785.80,5.762
786.00,5.736
786.20,5.818
786.40,5.802
786.60,5.718
786.80,5.782
787.00,5.804
787.20,5.758
787.40,5.776
787.60,5.776
787.80,5.752
788.00,5.818
788.20,5.796
788.40,5.718
788.60,5.804
788.80,5.776
789.00,5.77
789.20,5.762
789.40,5.752
789.60,5.878
789.80,5.678
790.00,5.788
790.20,5.76
790.40,5.776
790.60,5.754
790.80,5.812
791.00,5.766
791.20,5.768
791.40,5.792
791.60,5.726
791.80,5.766
792.00,5.758
792.20,5.788
792.40,5.746
792.60,5.792
792.80,5.744
793.00,5.726
793.20,5.758
793.40,5.768
793.60,5.762
793.80,5.796
794.00,5.762
794.20,5.776
794.40,5.746
794.60,5.792
794.80,5.758
795.00,5.784
795.20,5.736
795.40,5.748
795.60,5.784
795.80,5.774
796.00,5.726
796.20,5.744
796.40,5.758
796.60,5.796
796.80,5.788
797.00,5.748
797.20,5.762
797.40,5.74
797.60,5.796
797.80,5.704
798.00,5.76
798.20,5.748
798.40,5.758
798.60,5.758
798.80,5.806
799.00,5.746
799.20,5.798
799.40,5.738
799.60,5.784
799.80,5.776
800.00,5.726
800.20,5.758
800.40,5.782
800.60,5.792
800.80,5.738
801.00,5.806
801.20,5.77
801.40,5.722
801.60,5.782
801.80,5.748
802.00,5.798
802.20,5.78
802.40,5.788
802.60,5.74
802.80,5.792
803.00,5.774
803.20,5.78
803.40,5.776
803.60,5.784
803.80,5.752
804.00,5.824
804.20,5.77
804.40,5.768
804.60,5.74
804.80,5.79
805.00,5.776
805.20,5.762
805.40,5.762
805.60,5.762
805.80,5.788
806.00,5.828
806.20,5.758
806.40,5.76
806.60,5.74
806.80,5.798
807.00,5.788
807.20,5.828
807.40,5.796
807.60,5.824
807.80,5.67
808.00,5.812
808.20,5.774
808.40,5.748
808.60,5.776
808.80,5.77
809.00,5.77
809.20,5.76
809.40,5.776
809.60,5.782
809.80,5.788
810.00,5.788
810.20,5.744
810.40,5.776
810.60,5.766
810.80,5.752
811.00,5.792
811.20,5.748
811.40,5.774
811.60,5.754
811.80,5.76
812.00,5.736
812.20,5.79
812.40,5.748
812.60,5.736
812.80,5.766
813.00,5.792
813.20,5.766
813.40,5.736
813.60,5.784
813.80,5.746
814.00,5.724
814.20,5.796
814.40,5.76
814.60,5.762
814.80,5.736
815.00,5.76
815.20,5.792
815.40,5.788
815.60,5.752
815.80,5.754
816.00,5.774
816.20,5.708
816.40,5.784
816.60,5.776
816.80,5.752
817.00,5.788
817.20,5.776
817.40,5.752
817.60,5.73
817.80,5.812
818.00,5.774
818.20,5.702
818.40,5.79
818.60,5.834
818.80,5.736
819.00,5.78
819.20,5.788
819.40,5.818
819.60,5.776
819.80,5.77
820.00,5.768
820.20,5.77
820.40,5.774
820.60,5.78
820.80,5.766
821.00,5.752
821.20,5.828
821.40,5.76
821.60,5.754
821.80,5.796
822.00,5.74
822.20,5.79
822.40,5.776
822.60,5.782
822.80,5.768
823.00,5.738
823.20,5.792
823.40,5.77
823.60,5.826
823.80,5.74
824.00,5.762
824.20,5.774
824.40,5.804
824.60,5.762
824.80,5.762
825.00,5.792
825.20,5.774
825.40,5.746
825.60,5.842
825.80,5.722
826.00,5.736
826.20,5.826
826.40,5.78
826.60,5.774
826.80,5.762
827.00,5.736
827.20,5.754
827.40,5.77
827.60,5.802
827.80,5.784
828.00,5.748
828.20,5.726
828.40,5.71
828.60,5.788
828.80,5.76
829.00,5.768
829.20,5.788
829.40,5.696
829.60,5.81
829.80,5.724
830.00,5.77
830.20,5.736
830.40,5.78
830.60,5.774
830.80,5.752
831.00,5.748
831.20,5.762
831.40,5.752
831.60,5.77
831.80,5.736
832.00,5.784
832.20,5.798
832.40,5.744
832.60,5.738
832.80,5.788
833.00,5.788
833.20,5.744
833.40,5.774
833.60,5.736
833.80,5.744
834.00,5.806
834.20,5.774
834.40,5.746
834.60,5.776
834.80,5.768
835.00,5.766
835.20,5.782
835.40,5.782
835.60,5.766
835.80,5.748
836.00,5.806
836.20,5.752
836.40,5.782
836.60,5.826
836.80,5.792
837.00,5.744
837.20,5.802
837.40,5.762
837.60,5.714
837.80,5.792
838.00,5.812
838.20,5.784
838.40,5.792
838.60,5.768
838.80,5.766
839.00,5.776
839.20,5.766
839.40,5.78
839.60,5.782
839.80,5.774
840.00,5.73
840.20,5.752
840.40,5.776
840.60,5.776
840.80,5.77
841.00,5.752
841.20,5.824
841.40,5.77
841.60,5.77
841.80,5.774
842.00,5.748
842.20,5.74
842.40,5.774
842.60,5.732
842.80,5.78
843.00,5.77
843.20,5.726
843.40,5.762
843.60,5.894
843.80,5.65
844.00,5.758
844.20,5.802
844.40,5.748
844.60,5.804
844.80,5.738
845.00,5.758
845.20,5.74
845.40,5.81
845.60,5.732
845.80,5.736
846.00,5.762
846.20,5.768
846.40,5.76
846.60,5.74
846.80,5.768
847.00,5.77
847.20,5.76
847.40,5.774
847.60,5.762
847.80,5.77
848.00,5.762
848.20,5.774
848.40,5.76
848.60,5.744
848.80,5.804
849.00,5.752
849.20,5.762
849.40,5.782
849.60,5.788
849.80,5.74
850.00,5.78
850.20,5.744
850.40,5.77
850.60,5.798
850.80,5.79
851.00,5.762
851.20,5.738
851.40,5.726
851.60,5.744
851.80,5.78
852.00,5.812
852.20,5.758
852.40,5.796
852.60,5.766
852.80,5.766
853.00,5.754
853.20,5.762
853.40,5.77
853.60,5.758
853.80,5.766
854.00,5.78
854.20,5.78
854.40,5.758
854.60,5.76
854.80,5.82
855.00,5.792
855.20,5.758
855.40,5.77
855.60,5.752
855.80,5.744
856.00,5.782
856.20,5.798
856.40,5.784
856.60,5.776
856.80,5.754
857.00,5.792
857.20,5.732
857.40,5.792
857.60,5.776
857.80,5.744
858.00,5.77
858.20,5.736
858.40,5.796
858.60,5.762
858.80,5.768
859.00,5.784
859.20,5.776
859.40,5.768
859.60,5.73
859.80,5.796
860.00,5.776
860.20,5.762
860.40,5.744
860.60,5.78
860.80,5.776
861.00,5.748
861.20,5.77
861.40,5.78
861.60,5.854
861.80,5.622
862.00,5.782
862.20,5.774
862.40,5.702
862.60,5.758
862.80,5.804
863.00,5.726
863.20,5.752
863.40,5.796
863.60,5.74
863.80,5.776
864.00,5.724
864.20,5.752
864.40,5.766
864.60,5.708
864.80,5.79
865.00,5.774
865.20,5.792
865.40,5.736
865.60,5.788
865.80,5.836
866.00,5.716
866.20,5.732
866.40,5.73
866.60,5.77
866.80,5.788
867.00,5.726
867.20,5.792
867.40,5.776
867.60,5.792
867.80,5.738
868.00,5.776
868.20,5.774
868.40,5.702
868.60,5.824
868.80,5.754
869.00,5.762
869.20,5.718
869.40,5.758
869.60,5.802
869.80,5.79
870.00,5.738
870.20,5.806
870.40,5.798
870.60,5.738
870.80,5.746
871.00,5.766
871.20,5.802
871.40,5.752
871.60,5.768
871.80,5.78
872.00,5.754
872.20,5.768
872.40,5.77
872.60,5.792
872.80,5.788
873.00,5.696
873.20,5.754
873.40,5.774
873.60,5.768
873.80,5.814
874.00,5.766
874.20,5.746
874.40,5.774
874.60,5.758
874.80,5.79
875.00,5.774
875.20,5.76
875.40,5.744
875.60,5.732
875.80,5.77
876.00,5.796
876.20,5.77
876.40,5.752
876.60,5.79
876.80,5.752
877.00,5.768
877.20,5.754
877.40,5.788
877.60,5.71
877.80,5.718
878.00,5.776
878.20,5.768
878.40,5.762
878.60,5.738
878.80,5.746
879.00,5.744
879.20,5.796
879.40,5.762
879.60,5.826
879.80,5.622
880.00,5.768
880.20,5.77
880.40,5.754
880.60,5.774
880.80,5.776
881.00,5.738
881.20,5.752
881.40,5.762
881.60,5.77
881.80,5.802
882.00,5.76
882.20,5.736
882.40,5.774
882.60,5.768
882.80,5.736
883.00,5.768
883.20,5.782
883.40,5.754
883.60,5.784
883.80,5.758
884.00,5.74
884.20,5.71
884.40,5.79
884.60,5.784
884.80,5.774
885.00,5.81
885.20,5.758
885.40,5.762
885.60,5.768
885.80,5.762
886.00,5.762
886.20,5.784
886.40,5.736
886.60,5.744
886.80,5.818
887.00,5.76
887.20,5.774
887.40,5.768
887.60,5.78
887.80,5.758
888.00,5.784
888.20,5.804
888.40,5.78
888.60,5.77
888.80,5.76
889.00,5.774
889.20,5.802
889.40,5.774
889.60,5.81
889.80,5.746
890.00,5.748
890.20,5.748
890.40,5.776
890.60,5.774
890.80,5.798
891.00,5.732
891.20,5.796
891.60,5.752
891.80,5.762
892.00,5.748
892.20,5.756
892.40,5.8
892.60,5.748
892.80,5.752
893.00,5.764
893.20,5.748
893.40,5.762
893.60,5.76
893.80,5.732
894.00,5.782
894.20,5.72
894.40,5.8
894.60,5.718
894.80,5.83
895.00,5.68
895.20,5.792
895.40,5.742
895.60,5.792
895.80,5.718
896.00,5.756
896.20,5.76
896.40,5.774
896.60,5.792
896.80,5.746
897.00,5.742
897.20,5.76
897.40,5.808
897.60,5.748
897.80,5.73
898.00,5.738
898.20,5.796
898.40,5.718
898.60,5.768
898.80,5.768
899.00,5.754
899.20,5.724
899.40,5.778
899.60,5.708
899.80,5.784
900.00,5.752
900.20,5.752
900.40,5.77
900.60,5.77
900.80,5.782
901.00,5.726
901.20,5.732
901.40,5.798
901.60,5.806
901.80,5.762
902.00,5.762
902.20,5.756
902.40,5.76
902.60,5.74
902.80,5.774
903.00,5.754
903.20,5.774
903.40,5.814
903.60,5.762
903.80,5.752
904.00,5.734
904.20,5.804
904.40,5.774
904.60,5.774
904.80,5.752
905.00,5.776
905.20,5.776
905.40,5.754
905.60,5.776
905.80,5.784
906.00,5.748
906.20,5.74
906.40,5.754
906.60,5.804
906.80,5.774
907.00,5.748
907.20,5.792
907.40,5.778
907.60,5.756
907.80,5.778
908.00,5.77
908.20,5.77
908.40,5.754
908.60,5.748
908.80,5.768
909.00,5.786
909.20,5.752
909.40,5.784
909.60,5.754
909.80,5.768
910.00,5.738
910.20,5.754
910.40,5.776
910.60,5.792
910.80,5.77
911.00,5.718
911.20,5.726
911.40,5.782
911.60,5.776
911.80,5.732
912.00,5.774
912.20,5.756
912.40,5.72
912.60,5.762
912.80,5.856
913.00,5.636
913.20,5.752
913.40,5.77
913.60,5.76
913.80,5.774
914.00,5.762
914.20,5.734
914.40,5.768
914.60,5.746
914.80,5.73
915.00,5.726
915.20,5.762
915.40,5.804
915.60,5.734
915.80,5.808
916.00,5.778
916.20,5.74
916.40,5.746
916.60,5.742
916.80,5.774
917.00,5.792
917.20,5.704
917.40,5.8
917.60,5.724
917.80,5.83
918.00,5.732
918.20,5.764
918.40,5.782
918.60,5.756
918.80,5.738
919.00,5.754
919.20,5.776
919.40,5.754
919.60,5.786
919.80,5.796
920.00,5.782
920.20,5.804
920.40,5.77
920.60,5.734
920.80,5.726
921.00,5.822
921.20,5.754
921.40,5.796
921.60,5.804
921.80,5.718
922.00,5.774
922.20,5.76
922.40,5.792
922.60,5.806
922.80,5.738
923.00,5.754
923.20,5.762
923.40,5.74
923.60,5.77
923.80,5.818
924.00,5.784
924.20,5.742
924.40,5.752
924.60,5.742
924.80,5.77
925.00,5.776
925.20,5.748
925.40,5.784
925.60,5.738
925.80,5.726
926.00,5.756
926.20,5.732
926.40,5.804
926.60,5.73
926.80,5.778
927.00,5.798
927.20,5.724
927.40,5.738
927.60,5.726
927.80,5.776
928.00,5.73
928.20,5.724
928.40,5.76
928.60,5.808
928.80,5.74
929.00,5.784
929.20,5.764
929.40,5.738
929.60,5.702
929.80,5.798
930.00,5.778
930.20,5.742
930.40,5.76
930.60,5.748
930.80,5.894
931.00,5.636
931.20,5.796
931.40,5.694
931.60,5.79
931.80,5.754
932.00,5.72
932.20,5.786
932.40,5.774
932.60,5.754
932.80,5.776
933.00,5.74
933.20,5.72
933.40,5.79
933.60,5.798
933.80,5.752
934.00,5.752
934.20,5.776
934.40,5.718
934.60,5.748
934.80,5.768
935.00,5.776
935.20,5.764
935.40,5.782
935.60,5.796
935.80,5.768
936.00,5.79
936.20,5.746
936.40,5.808
936.60,5.726
936.80,5.796
937.00,5.73
937.20,5.774
937.40,5.782
937.60,5.786
937.80,5.782
938.00,5.756
938.20,5.746
938.40,5.774
938.60,5.778
938.80,5.732
939.00,5.806
939.20,5.774
939.40,5.742
939.60,5.786
939.80,5.742
940.00,5.782
940.20,5.768
940.40,5.726
940.60,5.76
940.80,5.748
941.00,5.79
941.20,5.74
941.40,5.768
941.60,5.806
941.80,5.732
942.00,5.726
942.20,5.764
942.40,5.76
942.60,5.76
942.80,5.76
943.00,5.77
943.20,5.726
943.40,5.8
943.60,5.72
943.80,5.776
944.00,5.754
944.20,5.754
944.40,5.742
944.60,5.76
944.80,5.778
945.00,5.73
945.20,5.748
945.40,5.718
945.60,5.774
945.80,5.764
946.00,5.76
946.20,5.754
946.40,5.768
946.60,5.754
946.80,5.742
947.00,5.76
947.20,5.762
947.40,5.76
947.60,5.764
947.80,5.768
948.00,5.762
948.20,5.796
948.40,5.726
948.60,5.774
948.80,5.862
949.00,5.654
949.20,5.762
949.40,5.748
949.60,5.776
949.80,5.738
950.00,5.752
950.20,5.776
950.40,5.738
950.60,5.776
950.80,5.784
951.00,5.776
951.20,5.696
951.40,5.804
951.60,5.776
951.80,5.79
952.00,5.764
952.20,5.774
952.40,5.762
952.60,5.694
952.80,5.8
953.00,5.74
953.20,5.776
953.40,5.812
953.60,5.73
953.80,5.778
954.00,5.778
954.20,5.748
954.40,5.782
954.60,5.764
954.80,5.762
955.00,5.79
955.20,5.762
955.40,5.762
955.60,5.76
955.80,5.776
956.00,5.738
956.20,5.796
956.40,5.724
956.60,5.762
956.80,5.738
957.00,5.784
957.20,5.774
957.40,5.764
957.60,5.738
957.80,5.762
958.00,5.762
958.20,5.746
958.40,5.726
958.60,5.77
958.80,5.752
959.00,5.786
959.20,5.726
959.40,5.738
959.60,5.808
959.80,5.746
960.00,5.72
960.20,5.774
960.40,5.792
960.60,5.73
960.80,5.768
961.00,5.732
961.20,5.762
961.40,5.762
961.60,5.77
961.80,5.752
962.00,5.756
962.20,5.746
962.40,5.77
962.60,5.762
962.80,5.748
963.00,5.762
963.20,5.774
963.40,5.73
963.60,5.756
963.80,5.774
964.00,5.764
964.20,5.768
964.40,5.748
964.60,5.762
964.80,5.752
965.00,5.734
965.20,5.762
965.40,5.742
965.60,5.776
965.80,5.768
966.00,5.764
966.20,5.774
966.40,5.724
966.60,5.79
966.80,5.87
967.00,5.658
967.20,5.77
967.40,5.754
967.60,5.768
967.80,5.738
968.00,5.774
968.20,5.774
968.40,5.762
968.60,5.738
968.80,5.82
969.00,5.73
969.20,5.774
969.40,5.782
969.60,5.724
969.80,5.786
970.00,5.784
970.20,5.74
970.40,5.754
970.60,5.776
970.80,5.774
971.00,5.734
971.20,5.786
971.40,5.76
971.60,5.77
971.80,5.762
972.00,5.774
972.20,5.742
972.40,5.776
972.60,5.742
972.80,5.762
973.00,5.776
973.20,5.79
973.40,5.724
973.60,5.79
973.80,5.822
974.00,5.768
974.20,5.756
974.40,5.726
974.60,5.734
974.80,5.798
975.00,5.716
975.20,5.8
975.40,5.762
975.60,5.778
975.80,5.738
976.00,5.782
976.20,5.778
976.40,5.73
976.60,5.724
976.80,5.768
977.00,5.768
977.20,5.712
977.40,5.778
977.60,5.768
977.80,5.77
978.00,5.752
978.20,5.782
978.40,5.716
978.60,5.774
978.80,5.742
979.00,5.742
979.20,5.742
979.40,5.74
979.60,5.792
979.80,5.73
980.00,5.784
980.20,5.686
980.40,5.79
980.60,5.742
980.80,5.764
981.00,5.752
981.20,5.73
981.40,5.72
981.60,5.796
981.80,5.762
982.00,5.748
982.20,5.782
982.40,5.73
982.60,5.768
982.80,5.77
983.00,5.754
983.20,5.742
983.40,5.748
983.60,5.792
983.80,5.762
984.00,5.782
984.20,5.738
984.40,5.782
984.60,5.754
984.80,5.864
985.00,5.636
985.20,5.784
985.40,5.762
985.60,5.784
985.80,5.778
986.00,5.762
986.20,5.796
986.40,5.756
986.60,5.806
986.80,5.724
987.00,5.746
987.20,5.778
987.40,5.764
987.60,5.792
987.80,5.748
988.00,5.774
988.20,5.742
988.40,5.762
988.60,5.754
988.80,5.82
989.00,5.764
989.20,5.768
989.40,5.77
989.60,5.716
989.80,5.778
990.00,5.77
990.20,5.778
990.40,5.732
990.60,5.738
990.80,5.768
991.00,5.806
991.20,5.768
991.40,5.746
991.60,5.732
991.80,5.742
992.00,5.762
992.20,5.748
992.40,5.774
992.60,5.756
992.80,5.748
993.00,5.754
993.20,5.762
993.40,5.778
993.60,5.738
993.80,5.746
994.00,5.734
994.20,5.768
994.40,5.734
994.60,5.734
994.80,5.732
995.00,5.74
995.20,5.774
995.40,5.746
995.60,5.718
995.80,5.72
996.00,5.784
996.20,5.762
996.40,5.752
996.60,5.784
996.80,5.708
997.00,5.82
997.20,5.698
997.40,5.754
997.60,5.738
997.80,5.77
998.00,5.762
998.20,5.762
998.40,5.782
998.60,5.732
998.80,5.792
999.00,5.774
999.20,5.776
999.40,5.754
999.60,5.72
999.80,5.746
1000.00,5.748
1000.20,5.762
1000.40,5.734
1000.60,5.782
1000.80,5.748
1001.00,5.806
1001.20,5.756
1001.40,5.768
1001.60,5.746
1001.80,5.776
1002.00,5.764
1002.20,5.76
1002.40,5.738
1002.60,5.77
1002.80,5.87
1003.00,5.664
1003.20,5.748
1003.40,5.738
1003.60,5.776
1003.80,5.76
1004.00,5.792
1004.20,5.734
1004.40,5.768
1004.60,5.756
1004.80,5.762
1005.00,5.76
1005.20,5.79
1005.40,5.748
1005.60,5.774
1005.80,5.774
1006.00,5.748
1006.20,5.748
1006.40,5.752
1006.60,5.812
1006.80,5.73
1007.00,5.786
1007.20,5.752
1007.40,5.786
1007.60,5.724
1007.80,5.77
1008.00,5.776
1008.20,5.79
1008.40,5.74
1008.60,5.746
1008.80,5.77
1009.00,5.756
1009.20,5.71
1009.40,5.76
1009.60,5.79
1009.80,5.762
1010.00,5.71
1010.20,5.752
1010.40,5.76
1010.60,5.72
1010.80,5.808
1011.00,5.738
1011.20,5.762
1011.40,5.726
1011.60,5.746
1011.80,5.748
1012.00,5.76
1012.20,5.798
1012.40,5.72
1012.60,5.752
1012.80,5.76
1013.00,5.726
1013.20,5.774
1013.40,5.77
1013.60,5.726
1013.80,5.764
1014.00,5.762
1014.20,5.732
1014.40,5.698
1014.60,5.778
1014.80,5.74
1015.00,5.784
1015.20,5.746
1015.40,5.792
1015.60,5.72
1015.80,5.756
1016.00,5.742
1016.20,5.768
1016.40,5.762
1016.60,5.74
1016.80,5.764
1017.00,5.746
1017.20,5.764
1017.40,5.756
1017.60,5.746
1017.80,5.76
1018.00,5.79
1018.20,5.774
1018.40,5.748
1018.60,5.774
1018.80,5.76
1019.00,5.77
1019.20,5.776
1019.40,5.768
1019.60,5.79
1019.80,5.784
1020.00,5.732
1020.20,5.776
1020.40,5.742
1020.60,5.752
1020.80,5.916
1021.00,5.636
1021.20,5.754
1021.40,5.732
1021.60,5.786
1021.80,5.778
1022.00,5.786
1022.20,5.784
1022.40,5.73
1022.60,5.768
1022.80,5.746
1023.00,5.74
1023.20,5.724
1023.40,5.774
1023.60,5.804
1023.80,5.77
1024.00,5.734
1024.20,5.738
1024.40,5.768
1024.60,5.748
1024.80,5.786
1025.00,5.782
1025.20,5.764
1025.40,5.79
1025.60,5.708
1025.80,5.748
1026.00,5.724
1026.20,5.77
1026.40,5.756
1026.60,5.732
1026.80,5.774
1027.00,5.718
1027.20,5.724
1027.40,5.776
1027.60,5.804
1027.80,5.708
1028.00,5.742
1028.20,5.748
1028.40,5.756
1028.60,5.738
1028.80,5.73
1029.00,5.74
1029.20,5.734
1029.40,5.712
1029.60,5.74
1029.80,5.806
1030.00,5.74
1030.20,5.732
1030.40,5.768
1030.60,5.732
1030.80,5.798
1031.00,5.786
1031.20,5.756
1031.40,5.748
1031.60,5.784
1031.80,5.752
1032.00,5.726
1032.20,5.784
1032.40,5.756
1032.60,5.784
1032.80,5.702
1033.00,5.774
1033.20,5.764
1033.40,5.76
1033.60,5.776
1033.80,5.712
1034.00,5.798
1034.20,5.754
1034.40,5.768
1034.60,5.73
1034.80,5.748
1035.00,5.76
1035.20,5.776
1035.40,5.774
1035.60,5.73
1035.80,5.738
1036.00,5.776
1036.20,5.774
1036.40,5.798
1036.60,5.708
1036.80,5.778
1037.00,5.796
1037.20,5.704
1037.40,5.784
1037.60,5.724
1037.80,5.818
1038.00,5.804
1038.20,5.746
1038.40,5.764
1038.60,5.768
1038.80,5.842
1039.00,5.664
1039.20,5.76
1039.40,5.74
1039.60,5.762
1039.80,5.774
1040.00,5.782
1040.20,5.756
1040.40,5.76
1040.60,5.754
1040.80,5.756
1041.00,5.778
1041.20,5.77
1041.40,5.726
1041.60,5.752
1041.80,5.754
1042.00,5.764
1042.20,5.774
1042.40,5.718
1042.60,5.734
1042.80,5.77
1043.00,5.8
1043.20,5.756
1043.40,5.776
1043.60,5.74
1043.80,5.754
1044.00,5.724
1044.20,5.734
1044.40,5.77
1044.60,5.742
1044.80,5.71
1045.00,5.754
1045.20,5.764
1045.40,5.77
1045.60,5.742
1045.80,5.778
1046.00,5.704
1046.20,5.754
1046.40,5.752
1046.60,5.752
1046.80,5.724
1047.00,5.782
1047.20,5.716
1047.40,5.782
1047.60,5.724
1047.80,5.778
1048.00,5.756
1048.20,5.718
1048.40,5.742
1048.60,5.746
1048.80,5.762
1049.00,5.762
1049.20,5.77
1049.40,5.754
1049.60,5.76
1049.80,5.776
1050.00,5.718
1050.20,5.764
1050.40,5.724
1050.60,5.784
1050.80,5.746
1051.00,5.786
1051.20,5.774
1051.40,5.762
1051.60,5.752
1051.80,5.77
1052.00,5.762
1052.20,5.776
1052.40,5.734
1052.60,5.746
1052.80,5.774
1053.00,5.752
1053.20,5.776
1053.40,5.754
1053.60,5.752
1053.80,5.796
1054.00,5.76
1054.20,5.746
1054.40,5.77
1054.60,5.726
1054.80,5.778
1055.00,5.8
1055.20,5.712
1055.40,5.76
1055.60,5.792
1055.80,5.726
1056.00,5.764
1056.20,5.786
1056.40,5.738
1056.60,5.796
1056.80,5.808
1057.00,5.66
1057.20,5.784
1057.40,5.718
1057.60,5.748
1057.80,5.798
1058.00,5.748
1058.20,5.732
1058.40,5.768
1058.60,5.764
1058.80,5.756
1059.00,5.732
1059.20,5.77
1059.40,5.768
1059.60,5.752
1059.80,5.74
1060.00,5.73
1060.20,5.754
1060.40,5.756
1060.60,5.774
1060.80,5.752
1061.00,5.748
1061.20,5.764
1061.40,5.746
1061.60,5.752
1061.80,5.734
1062.00,5.742
1062.20,5.762
1062.40,5.742
1062.60,5.734
1062.80,5.752
1063.00,5.726
1063.20,5.768
1063.40,5.724
1063.60,5.808
1063.80,5.724
1064.00,5.796
1064.20,5.742
1064.40,5.712
1064.60,5.754
1064.80,5.776
1065.00,5.702
1065.20,5.724
1065.40,5.776
1065.60,5.784
1065.80,5.756
1066.00,5.704
1066.20,5.778
1066.40,5.79
1066.60,5.702
1066.80,5.756
1067.00,5.756
1067.20,5.734
1067.40,5.774
1067.60,5.708
1067.80,5.764
1068.00,5.756
1068.20,5.738
1068.40,5.804
1068.60,5.76
1068.80,5.774
1069.00,5.74
1069.20,5.742
1069.40,5.756
1069.60,5.752
1069.80,5.776
1070.00,5.776
1070.20,5.796
1070.40,5.738
1070.60,5.726
1070.80,5.79
1071.00,5.776
1071.20,5.784
1071.40,5.746
1071.60,5.784
1071.80,5.752
1072.00,5.762
1072.20,5.762
1072.40,5.746
1072.60,5.752
1072.80,5.796
1073.00,5.754
1073.20,5.748
1073.40,5.754
1073.60,5.804
1073.80,5.776
1074.00,5.742
1074.20,5.754
1074.40,5.718
1074.60,5.778
1074.80,5.848
1075.00,5.65
1075.20,5.774
1075.40,5.672
1075.60,5.808
1075.80,5.762
1076.00,5.724
1076.20,5.774
1076.40,5.776
1076.60,5.8
1076.80,5.71
1077.00,5.71
1077.20,5.74
1077.40,5.756
1077.60,5.77
1077.80,5.776
1078.00,5.702
1078.20,5.756
1078.40,5.76
1078.60,5.72
1078.80,5.742
1079.00,5.768
1079.20,5.746
1079.40,5.806
1079.60,5.734
1079.80,5.73
1080.00,5.712
1080.20,5.74
1080.40,5.746
1080.60,5.778
1080.80,5.726
1081.00,5.74
1081.20,5.752
1081.40,5.748
1081.60,5.732
1081.80,5.774
1082.00,5.756
1082.20,5.814
1082.40,5.718
1082.60,5.74
1082.80,5.752
1083.00,5.754
1083.20,5.748
1083.40,5.762
1083.60,5.756
1083.80,5.76
1084.00,5.79
1084.20,5.748
1084.40,5.77
1084.60,5.754
1084.80,5.796
1085.00,5.724
1085.20,5.776
1085.40,5.748
1085.60,5.756
1085.80,5.762
1086.00,5.786
1086.20,5.738
1086.40,5.764
1086.60,5.784
1086.80,5.748
1087.00,5.716
1087.20,5.774
1087.40,5.822
1087.60,5.732
1087.80,5.77
1088.00,5.754
1088.20,5.74
1088.40,5.764
1088.60,5.786
1088.80,5.724
1089.00,5.786
1089.20,5.79
1089.40,5.734
1089.60,5.746
1089.80,5.742
1090.00,5.746
1090.20,5.786
1090.40,5.74
1090.60,5.792
1090.80,5.746
1091.00,5.796
1091.20,5.774
1091.40,5.74
1091.60,5.764
1091.80,5.752
1092.00,5.774
1092.20,5.734
1092.40,5.762
1092.60,5.748
1092.80,5.798
1093.00,5.688
1093.20,5.724
1093.40,5.768
1093.60,5.8
1093.80,5.712
1094.00,5.762
1094.20,5.734
1094.40,5.746
1094.60,5.756
1094.80,5.724
1095.00,5.746
1095.20,5.768
1095.40,5.746
1095.60,5.778
1095.80,5.726
1096.00,5.738
1096.20,5.774
1096.40,5.742
1096.60,5.738
1096.80,5.76
1097.00,5.724
1097.20,5.756
1097.40,5.768
1097.60,5.756
1097.80,5.762
1098.00,5.74
1098.20,5.696
1098.40,5.718
1098.60,5.814
1098.80,5.74
1099.00,5.718
1099.20,5.752
1099.40,5.76
1099.60,5.748
1099.80,5.764
1100.00,5.746
1100.20,5.742
1100.40,5.784
1100.60,5.748
1100.80,5.798
1101.00,5.73
1101.20,5.76
1101.40,5.738
1101.60,5.762
1101.80,5.756
1102.00,5.754
1102.20,5.776
1102.40,5.726
1102.60,5.804
1102.80,5.72
1103.00,5.8
1103.20,5.752
1103.40,5.708
1103.60,5.76
1103.80,5.756
1104.00,5.768
1104.20,5.778
1104.40,5.718
1104.60,5.74
1104.80,5.808
1105.00,5.768
1105.20,5.76
1105.40,5.776
1105.60,5.742
1105.80,5.746
1106.00,5.77
1106.20,5.776
1106.40,5.776
1106.60,5.73
1106.80,5.778
1107.00,5.742
1107.20,5.762
1107.40,5.796
1107.60,5.74
1107.80,5.756
1108.00,5.73
1108.20,5.746
1108.40,5.768
1108.60,5.818
1108.80,5.696
1109.00,5.786
1109.20,5.742
1109.40,5.77
1109.60,5.746
1109.80,5.812
1110.00,5.716
1110.20,5.746
1110.40,5.72
1110.60,5.776
1110.80,5.818
1111.00,5.638
1111.20,5.754
1111.40,5.76
1111.60,5.734
1111.80,5.792
1112.00,5.726
1112.20,5.72
1112.40,5.74
1112.60,5.774
1112.80,5.756
1113.00,5.768
1113.20,5.76
1113.40,5.786
1113.60,5.74
1113.80,5.726
1114.00,5.762
1114.20,5.716
1114.40,5.734
1114.60,5.748
1114.80,5.774
1115.00,5.77
1115.20,5.77
1115.40,5.742
1115.60,5.752
1115.80,5.774
1116.00,5.756
1116.20,5.71
1116.40,5.784
1116.60,5.764
1116.80,5.762
1117.00,5.72
1117.20,5.748
1117.40,5.756
1117.60,5.784
1117.80,5.74
1118.00,5.748
1118.20,5.746
1118.40,5.784
1118.60,5.786
1118.80,5.756
1119.00,5.774
1119.20,5.77
1119.40,5.732
1119.60,5.754
1119.80,5.782
1120.00,5.782
1120.20,5.72
1120.40,5.754
1120.60,5.798
1120.80,5.784
1121.00,5.76
1121.20,5.748
1121.40,5.748
1121.60,5.742
1121.80,5.798
1122.00,5.742
1122.20,5.738
1122.40,5.79
1122.60,5.8
1122.80,5.746
1123.00,5.74
1123.20,5.72
1123.40,5.754
1123.60,5.756
1123.80,5.742
1124.00,5.76
1124.20,5.778
1124.40,5.74
1124.60,5.762
1124.80,5.796
1125.00,5.756
1125.20,5.762
1125.40,5.762
1125.60,5.712
1125.80,5.726
1126.00,5.774
1126.20,5.74
1126.40,5.778
1126.60,5.748
1126.80,5.774
1127.00,5.726
1127.20,5.774
1127.40,5.712
1127.60,5.8
1127.80,5.734
1128.00,5.746
1128.20,5.738
1128.40,5.718
1128.60,5.752
1128.80,5.826
1129.00,5.674
1129.20,5.734
1129.40,5.718
1129.60,5.756
1129.80,5.76
1130.00,5.77
1130.20,5.748
1130.40,5.746
1130.60,5.73
1130.80,5.8
1131.00,5.742
1131.20,5.74
1131.40,5.752
1131.60,5.754
1131.80,5.74
1132.00,5.702
1132.20,5.778
1132.40,5.738
1132.60,5.786
1132.80,5.73
1133.00,5.752
1133.20,5.764
1133.40,5.694
1133.60,5.796
1133.80,5.76
1134.00,5.71
1134.20,5.776
1134.40,5.76
1134.60,5.752
1134.80,5.748
1135.00,5.774
1135.20,5.798
1135.40,5.752
1135.60,5.756
1135.80,5.776
1136.00,5.708
1136.20,5.806
1136.40,5.752
1136.60,5.746
1136.80,5.752
1137.00,5.742
1137.20,5.754
1137.40,5.786
1137.60,5.752
1137.80,5.796
1138.00,5.822
1138.20,5.71
1138.40,5.734
1138.60,5.746
1138.80,5.746
1139.00,5.798
1139.20,5.716
1139.40,5.774
1139.60,5.812
1139.80,5.742
1140.00,5.768
1140.20,5.74
1140.40,5.792
1140.60,5.746
1140.80,5.73
1141.00,5.776
1141.20,5.77
1141.40,5.704
1141.60,5.778
1141.80,5.782
1142.00,5.746
1142.20,5.724
1142.40,5.764
1142.60,5.76
1142.80,5.782
1143.00,5.73
1143.20,5.742
1143.40,5.778
1143.60,5.806
1143.80,5.718
1144.00,5.748
1144.20,5.74
1144.40,5.69
1144.60,5.756
1144.80,5.746
1145.00,5.726
1145.20,5.752
1145.40,5.778
1145.60,5.74
1145.80,5.756
1146.00,5.786
1146.20,5.738
1146.40,5.72
1146.60,5.754
1146.80,5.818
1147.00,5.694
1147.20,5.72
1147.40,5.798
1147.60,5.704
1147.80,5.73
1148.00,5.784
1148.20,5.748
1148.40,5.73
1148.60,5.756
1148.80,5.774
1149.00,5.704
1149.20,5.716
1149.40,5.774
1149.60,5.808
1149.80,5.732
1150.00,5.76
1150.20,5.77
1150.40,5.754
1150.60,5.764
1150.80,5.796
1151.00,5.694
1151.20,5.746
1151.40,5.764
1151.60,5.748
1151.80,5.734
1152.00,5.786
1152.20,5.732
1152.40,5.76
1152.60,5.774
1152.80,5.782
1153.00,5.768
1153.20,5.718
1153.40,5.77
1153.60,5.782
1153.80,5.72
1154.00,5.756
1154.20,5.76
1154.40,5.734
1154.60,5.79
1154.80,5.746
1155.00,5.774
1155.20,5.786
1155.40,5.738
1155.60,5.776
1155.80,5.77
1156.00,5.748
1156.20,5.76
1156.40,5.73
1156.60,5.808
1156.80,5.774
1157.00,5.724
1157.20,5.778
1157.40,5.754
1157.60,5.742
1157.80,5.754
1158.00,5.724
1158.20,5.8
1158.40,5.768
1158.60,5.754
1158.80,5.782
1159.00,5.732
1159.20,5.762
1159.40,5.732
1159.60,5.776
1159.80,5.716
1160.00,5.738
1160.20,5.742
1160.40,5.754
1160.60,5.756
1160.80,5.696
1161.00,5.812
1161.20,5.746
1161.40,5.73
1161.60,5.756
1161.80,5.704
1162.00,5.8
1162.20,5.74
1162.40,5.752
1162.60,5.74
1162.80,5.698
1163.00,5.748
1163.20,5.73
1163.40,5.778
1163.60,5.76
1163.80,5.734
1164.00,5.742
1164.20,5.77
1164.40,5.724
1164.60,5.756
1164.80,5.856
1165.00,5.688
1165.20,5.726
1165.40,5.756
1165.60,5.742
1165.80,5.784
1166.00,5.742
1166.20,5.752
1166.40,5.774
1166.60,5.742
1166.80,5.754
1167.00,5.72
1167.20,5.792
1167.40,5.774
1167.60,5.754
1167.80,5.748
1168.00,5.732
1168.20,5.768
1168.40,5.754
1168.60,5.754
1168.80,5.764
1169.00,5.804
1169.20,5.752
1169.40,5.77
1169.60,5.738
1169.80,5.742
1170.00,5.764
1170.20,5.746
1170.40,5.764
1170.60,5.774
1170.80,5.796
1171.00,5.708
1171.20,5.746
1171.40,5.774
1171.60,5.762
1171.80,5.742
1172.00,5.774
1172.20,5.768
1172.40,5.774
1172.60,5.778
1172.80,5.712
1173.00,5.738
1173.20,5.79
1173.40,5.752
1173.60,5.79
1173.80,5.718
1174.00,5.742
1174.20,5.72
1174.40,5.818
1174.60,5.756
1174.80,5.748
1175.00,5.752
1175.20,5.768
1175.40,5.732
1175.60,5.762
1175.80,5.768
1176.00,5.804
1176.20,5.716
1176.40,5.738
1176.60,5.768
1176.80,5.752
1177.00,5.73
1177.20,5.74
1177.40,5.762
1177.60,5.732
1177.80,5.752
1178.00,5.748
1178.20,5.718
1178.40,5.782
1178.60,5.734
1178.80,5.716
1179.00,5.812
1179.20,5.756
1179.40,5.686
1179.60,5.752
1179.80,5.786
1180.00,5.756
1180.20,5.738
1180.40,5.73
1180.60,5.756
1180.80,5.762
1181.00,5.752
1181.20,5.72
1181.40,5.732
1181.60,5.76
1181.80,5.718
1182.00,5.754
1182.20,5.812
1182.40,5.734
1182.60,5.738
1182.80,5.8
1183.00,5.672
1183.20,5.768
1183.40,5.778
1183.60,5.716
1183.80,5.74
1184.00,5.738
1184.20,5.79
1184.40,5.718
1184.60,5.774
1184.80,5.748
1185.00,5.784
1185.20,5.752
1185.40,5.738
1185.60,5.792
1185.80,5.73
1186.00,5.784
1186.20,5.804
1186.40,5.752
1186.60,5.77
1186.80,5.76
1187.00,5.756
1187.20,5.742
1187.40,5.768
1187.60,5.762
1187.80,5.754
1188.00,5.762
1188.20,5.762
1188.40,5.764
1188.60,5.778
1188.80,5.774
1189.00,5.73
1189.20,5.742
1189.40,5.732
1189.60,5.77
1189.80,5.768
1190.00,5.738
1190.20,5.796
1190.40,5.69
1190.60,5.792
1190.80,5.768
1191.00,5.778
1191.20,5.768
1191.40,5.74
1191.80,5.804
1192.00,5.748
1192.20,5.768
1192.40,5.752
1192.60,5.792
1192.80,5.718
1193.00,5.742
1193.20,5.712
1193.40,5.77
1193.60,5.77
1193.80,5.724
1194.00,5.738
1194.20,5.742
1194.40,5.756
1194.60,5.756
1194.80,5.762
1195.00,5.726
1195.20,5.742
1195.40,5.732
1195.60,5.718
1195.80,5.752
1196.00,5.72
1196.20,5.768
1196.40,5.752
1196.60,5.71
1196.80,5.698
1197.00,5.786
1197.20,5.756
1197.40,5.82
1197.60,5.716
1197.80,5.778
1198.00,5.786
1198.20,5.688
1198.40,5.742
1198.60,5.726
1198.80,5.742
1199.00,5.784
1199.20,5.754
1199.40,5.752
1199.60,5.796
1199.80,5.764
1200.00,5.718
1200.20,5.726
1200.40,5.742
1200.60,5.748
1200.80,5.756
1201.00,5.748
1201.20,5.752
1201.40,5.742
1201.60,5.748
1201.80,5.754
1202.00,5.746
1202.20,5.746
1202.40,5.732
1202.60,5.782
1202.80,5.762
1203.00,5.764
1203.20,5.746
1203.40,5.782
1203.60,5.738
1203.80,5.768
1204.00,5.768
1204.20,5.746
1204.40,5.748
1204.60,5.776
1204.80,5.762
1205.00,5.742
1205.20,5.752
1205.40,5.782
1205.60,5.756
1205.80,5.776
1206.00,5.774
1206.20,5.76
1206.40,5.778
1206.60,5.778
1206.80,5.748
1207.00,5.704
1207.20,5.748
1207.40,5.76
1207.60,5.776
1207.80,5.718
1208.00,5.764
1208.20,5.724
1208.40,5.786
1208.60,5.74
1208.80,5.732
1209.00,5.782
1209.20,5.732
1209.40,5.76
1209.60,5.726
1209.80,5.784
1210.00,5.738
1210.20,5.748
1210.40,5.748
1210.60,5.762
1210.80,5.752
1211.00,5.734
1211.20,5.774
1211.40,5.734
1211.60,5.726
1211.80,5.786
1212.00,5.746
1212.20,5.732
1212.40,5.762
1212.60,5.774
1212.80,5.748
1213.00,5.734
1213.20,5.764
1213.40,5.742
1213.60,5.682
1213.80,5.732
1214.00,5.756
1214.20,5.738
1214.40,5.716
1214.60,5.752
1214.80,5.778
1215.00,5.718
1215.20,5.782
1215.40,5.742
1215.60,5.742
1215.80,5.768
1216.00,5.826
1216.20,5.652
1216.40,5.784
1216.60,5.774
1216.80,5.746
1217.00,5.774
1217.20,5.718
1217.40,5.774
1217.60,5.712
1217.80,5.754
1218.00,5.734
1218.20,5.752
1218.40,5.762
1218.60,5.804
1218.80,5.734
1219.00,5.738
1219.20,5.746
1219.40,5.76
1219.60,5.774
1219.80,5.746
1220.00,5.778
1220.20,5.796
1220.40,5.74
1220.60,5.776
1220.80,5.764
1221.00,5.764
1221.20,5.732
1221.40,5.752
1221.60,5.77
1221.80,5.754
1222.00,5.746
1222.20,5.754
1222.40,5.782
1222.60,5.754
1222.80,5.756
1223.00,5.774
1223.20,5.694
1223.40,5.8
1223.60,5.718
1223.80,5.742
1224.00,5.792
1224.20,5.768
1224.40,5.768
1224.60,5.748
1224.80,5.712
1225.00,5.754
1225.20,5.756
1225.40,5.74
1225.60,5.798
1225.80,5.754
1226.00,5.732
1226.20,5.77
1226.40,5.72
1226.60,5.732
1226.80,5.738
1227.00,5.748
1227.20,5.768
1227.40,5.778
1227.60,5.716
1227.80,5.796
1228.00,5.786
1228.20,5.726
1228.40,5.72
1228.60,5.746
1228.80,5.768
1229.00,5.752
1229.20,5.734
1229.40,5.682
1229.60,5.77
1229.80,5.748
1230.00,5.762
1230.20,5.72
1230.40,5.752
1230.60,5.72
1230.80,5.818
1231.00,5.752
1231.20,5.726
1231.40,5.702
1231.60,5.742
1231.80,5.786
1232.00,5.756
1232.20,5.778
1232.40,5.68
1232.60,5.748
1232.80,5.79
1233.00,5.738
1233.20,5.764
1233.40,5.74
1233.60,5.76
1233.80,5.77
1234.00,5.812
1234.20,5.65
1234.40,5.782
1234.60,5.768
1234.80,5.748
1235.00,5.768
1235.20,5.762
1235.40,5.732
1235.60,5.76
1235.80,5.718
1236.00,5.796
1236.20,5.784
1236.40,5.738
1236.60,5.778
1236.80,5.746
1237.00,5.8
1237.20,5.756
1237.40,5.764
1237.60,5.74
1237.80,5.746
1238.00,5.768
1238.20,5.734
1238.40,5.748
1238.60,5.77
1238.80,5.734
1239.00,5.752
1239.20,5.798
1239.40,5.748
1239.60,5.738
1239.80,5.754
1240.00,5.742
1240.20,5.796
1240.40,5.756
1240.60,5.734
1240.80,5.756
1241.00,5.764
1241.20,5.778
1241.40,5.73
1241.60,5.786
1241.80,5.702
1242.00,5.74
1242.20,5.782
1242.40,5.696
1242.60,5.806
1242.80,5.762
1243.00,5.764
1243.20,5.732
1243.40,5.746
1243.60,5.746
1243.80,5.756
1244.00,5.724
1244.20,5.752
1244.40,5.814
1244.60,5.76
1244.80,5.71
1245.00,5.764
1245.20,5.712
1245.40,5.726
1245.60,5.782
1245.80,5.746
1246.00,5.754
1246.20,5.74
1246.40,5.784
1246.60,5.746
1246.80,5.712
1247.00,5.738
1247.20,5.764
1247.40,5.738
1247.60,5.718
1247.80,5.762
1248.00,5.718
1248.20,5.776
1248.40,5.74
1248.60,5.752
1248.80,5.752
1249.00,5.746
1249.20,5.752
1249.40,5.764
1249.60,5.72
1249.80,5.746
1250.00,5.752
1250.20,5.752
1250.40,5.732
1250.60,5.782
1250.80,5.73
1251.00,5.752
1251.20,5.756
1251.40,5.756
1251.60,5.746
1251.80,5.76
1252.00,5.872
1252.20,5.676
1252.40,5.718
1252.60,5.764
1252.80,5.732
1253.00,5.782
1253.20,5.776
1253.40,5.73
1253.60,5.74
1253.80,5.762
1254.00,5.8
1254.20,5.796
1254.40,5.752
1254.60,5.726
1254.80,5.762
1255.00,5.726
1255.20,5.764
1255.40,5.784
1255.60,5.756
1255.80,5.776
1256.00,5.768
1256.20,5.732
1256.40,5.756
1256.60,5.762
1256.80,5.786
1257.00,5.762
1257.20,5.764
1257.40,5.71
1257.60,5.762
1257.80,5.782
1258.00,5.76
1258.20,5.74
1258.40,5.774
1258.60,5.774
1258.80,5.752
1259.00,5.756
1259.20,5.74
1259.40,5.746
1259.60,5.756
1259.80,5.764
1260.00,5.786
1260.20,5.74
1260.40,5.762
1260.60,5.756
1260.80,5.698
1261.00,5.726
1261.20,5.74
1261.40,5.724
1261.60,5.732
1261.80,5.742
1262.00,5.726
1262.20,5.756
1262.40,5.782
1262.60,5.732
1262.80,5.778
1263.00,5.73
1263.20,5.752
1263.40,5.738
1263.60,5.742
1263.80,5.708
1264.00,5.774
1264.20,5.782
1264.40,5.702
1264.60,5.738
1264.80,5.796
1265.00,5.764
1265.20,5.76
1265.40,5.724
1265.60,5.696
1265.80,5.746
1266.00,5.798
1266.20,5.762
1266.40,5.754
1266.60,5.738
1266.80,5.752
1267.00,5.754
1267.20,5.734
1267.40,5.764
1267.60,5.76
1267.80,5.718
1268.00,5.798
1268.20,5.762
1268.40,5.724
1268.60,5.768
1268.80,5.762
1269.00,5.764
1269.20,5.746
1269.40,5.79
1269.60,5.754
1269.80,5.704
1270.00,5.888
1270.20,5.672
1270.40,5.77
1270.60,5.742
1270.80,5.782
1271.00,5.754
1271.20,5.746
1271.40,5.79
1271.60,5.754
1271.80,5.774
1272.00,5.726
1272.20,5.748
1272.40,5.77
1272.60,5.776
1272.80,5.774
1273.00,5.734
1273.20,5.72
1273.40,5.762
1273.60,5.77
1273.80,5.798
1274.00,5.732
1274.20,5.76
1274.40,5.762
1274.60,5.774
1274.80,5.756
1275.00,5.704
1275.20,5.798
1275.40,5.712
1275.60,5.756
1275.80,5.746
1276.00,5.73
1276.20,5.756
1276.40,5.77
1276.60,5.762
1276.80,5.716
1277.00,5.764
1277.20,5.72
1277.40,5.796
1277.60,5.754
1277.80,5.762
1278.00,5.726
1278.20,5.732
1278.40,5.742
1278.60,5.73
1278.80,5.74
1279.00,5.77
1279.20,5.726
1279.40,5.738
1279.60,5.738
1279.80,5.762
1280.00,5.738
1280.20,5.762
1280.40,5.732
1280.60,5.756
1280.80,5.69
1281.00,5.768
1281.20,5.732
1281.40,5.756
1281.60,5.734
1281.80,5.762
1282.00,5.748
1282.20,5.762
1282.40,5.754
1282.60,5.754
1282.80,5.73
1283.00,5.784
1283.20,5.764
1283.40,5.752
1283.60,5.754
1283.80,5.754
1284.00,5.688
1284.20,5.762
1284.40,5.8
1284.60,5.746
1284.80,5.762
1285.00,5.746
1285.20,5.8
1285.40,5.74
1285.60,5.74
1285.80,5.734
1286.00,5.796
1286.20,5.756
1286.40,5.76
1286.60,5.774
1286.80,5.742
1287.00,5.74
1287.20,5.752
1287.40,5.764
1287.60,5.746
1287.80,5.742
1288.00,5.878
1288.20,5.632
1288.40,5.784
1288.60,5.726
1288.80,5.762
1289.00,5.778
1289.20,5.782
1289.40,5.768
1289.60,5.732
1289.80,5.796
1290.00,5.734
1290.20,5.74
1290.40,5.806
1290.60,5.746
1290.80,5.738
1291.00,5.762
1291.20,5.738
1291.40,5.742
1291.60,5.756
1291.80,5.74
1292.00,5.776
1292.20,5.748
1292.40,5.756
1292.60,5.754
1292.80,5.73
1293.00,5.774
1293.20,5.746
1293.40,5.77
1293.60,5.72
1293.80,5.746
1294.00,5.724
1294.20,5.764
1294.40,5.738
1294.60,5.738
1294.80,5.752
1295.00,5.738
1295.20,5.774
1295.40,5.746
1295.60,5.742
1295.80,5.748
1296.00,5.72
1296.20,5.76
1296.40,5.73
1296.60,5.796
1296.80,5.738
1297.00,5.756
1297.20,5.774
1297.40,5.716
1297.60,5.746
1297.80,5.742
1298.00,5.812
1298.20,5.774
1298.40,5.738
1298.60,5.732
1298.80,5.738
1299.00,5.748
1299.20,5.754
1299.40,5.76
1299.60,5.73
1299.80,5.754
1300.00,5.756
1300.20,5.732
1300.40,5.742
1300.60,5.76
1300.80,5.748
1301.00,5.762
1301.20,5.74
1301.40,5.784
1301.60,5.696
1301.80,5.754
1302.00,5.764
1302.20,5.74
1302.40,5.8
1302.60,5.79
1302.80,5.738
1303.00,5.752
1303.20,5.718
1303.40,5.776
1303.60,5.752
1303.80,5.754
1304.00,5.768
1304.20,5.76
1304.40,5.726
1304.60,5.774
1304.80,5.754
1305.00,5.726
1305.20,5.754
1305.40,5.814
1305.60,5.726
1305.80,5.734
1306.00,5.878
1306.20,5.68
1306.40,5.732
1306.60,5.762
1306.80,5.77
1307.00,5.742
1307.20,5.694
1307.40,5.746
1307.60,5.702
1307.80,5.762
1308.00,5.77
1308.20,5.778
1308.40,5.738
1308.60,5.778
1308.80,5.704
1309.00,5.812
1309.20,5.732
1309.40,5.778
1309.60,5.734
1309.80,5.74
1310.00,5.74
1310.20,5.724
1310.40,5.738
1310.60,5.76
1310.80,5.71
1311.00,5.71
1311.20,5.768
1311.40,5.742
1311.60,5.804
1311.80,5.718
1312.00,5.732
1312.20,5.778
1312.40,5.702
1312.60,5.74
1312.80,5.712
1313.00,5.8
1313.20,5.712
1313.40,5.74
1313.60,5.762
1313.80,5.754
1314.00,5.752
1314.20,5.768
1314.40,5.748
1314.60,5.762
1314.80,5.732
1315.00,5.726
1315.20,5.724
1315.40,5.764
1315.60,5.742
1315.80,5.734
1316.00,5.752
1316.20,5.774
1316.40,5.746
1316.60,5.776
1316.80,5.754
1317.00,5.748
1317.20,5.756
1317.40,5.72
1317.60,5.76
1317.80,5.74
1318.00,5.762
1318.20,5.79
1318.40,5.76
1318.60,5.72
1318.80,5.72
1319.00,5.83
1319.20,5.726
1319.40,5.748
1319.60,5.774
1319.80,5.732
1320.00,5.77
1320.20,5.762
1320.40,5.754
1320.60,5.762
1320.80,5.764
1321.00,5.726
1321.20,5.762
1321.40,5.756
1321.60,5.738
1321.80,5.77
1322.00,5.776
1322.20,5.748
1322.40,5.752
1322.60,5.8
1322.80,5.756
1323.00,5.732
1323.20,5.768
1323.40,5.762
1323.60,5.738
1323.80,5.764
1324.00,5.814
1324.20,5.688
1324.40,5.742
1324.60,5.746
1324.80,5.694
1325.00,5.804
1325.20,5.782
1325.40,5.756
1325.60,5.774
1325.80,5.732
1326.00,5.73
1326.20,5.754
1326.40,5.756
1326.60,5.79
1326.80,5.694
1327.00,5.784
1327.20,5.756
1327.40,5.754
1327.60,5.738
1327.80,5.778
1328.00,5.73
1328.20,5.69
1328.40,5.752
1328.60,5.74
1328.80,5.742
1329.00,5.726
1329.20,5.734
1329.40,5.784
1329.60,5.748
1329.80,5.688
1330.00,5.73
1330.20,5.748
1330.40,5.774
1330.60,5.746
1330.80,5.682
1331.00,5.724
1331.20,5.738
1331.40,5.774
1331.60,5.72
1331.80,5.748
1332.00,5.754
1332.20,5.752
1332.40,5.762
1332.60,5.72
1332.80,5.762
1333.00,5.756
1333.20,5.762
1333.40,5.76
1333.60,5.712
1333.80,5.74
1334.00,5.762
1334.20,5.748
1334.40,5.74
1334.60,5.752
1334.80,5.798
1335.00,5.712
1335.20,5.746
1335.40,5.74
1335.60,5.762
1335.80,5.742
1336.00,5.752
1336.20,5.79
1336.40,5.742
1336.60,5.732
1336.80,5.792
1337.00,5.716
1337.20,5.768
1337.40,5.764
1337.60,5.726
1337.80,5.764
1338.00,5.752
1338.20,5.762
1338.40,5.726
1338.60,5.756
1338.80,5.73
1339.00,5.764
1339.20,5.746
1339.40,5.746
1339.60,5.784
1339.80,5.776
1340.00,5.726
1340.20,5.768
1340.40,5.69
1340.60,5.776
1340.80,5.704
1341.00,5.754
1341.20,5.776
1341.40,5.702
1341.60,5.786
1341.80,5.764
1342.00,5.82
1342.20,5.658
1342.40,5.74
1342.60,5.768
1342.80,5.752
1343.00,5.732
1343.20,5.756
1343.40,5.77
1343.60,5.748
1343.80,5.76
1344.00,5.762
1344.20,5.72
1344.40,5.734
1344.60,5.73
1344.80,5.734
1345.00,5.704
1345.20,5.724
1345.40,5.778
1345.60,5.746
1345.80,5.73
1346.00,5.798
1346.20,5.74
1346.40,5.74
1346.60,5.74
1346.80,5.73
1347.00,5.74
1347.20,5.724
1347.40,5.746
1347.60,5.698
1347.80,5.774
1348.00,5.784
1348.20,5.726
1348.40,5.752
1348.60,5.796
1348.80,5.724
1349.00,5.72
1349.20,5.748
1349.40,5.774
1349.60,5.738
1349.80,5.726
1350.00,5.774
1350.20,5.754
1350.40,5.71
1350.60,5.768
1350.80,5.734
1351.00,5.786
1351.20,5.768
1351.40,5.754
1351.60,5.756
1351.80,5.774
1352.00,5.71
1352.20,5.76
1352.40,5.786
1352.60,5.74
1352.80,5.746
1353.00,5.774
1353.20,5.748
1353.40,5.782
1353.60,5.742
1353.80,5.782
1354.00,5.716
1354.20,5.768
1354.40,5.784
1354.60,5.76
1354.80,5.776
1355.00,5.718
1355.20,5.74
1355.40,5.732
1355.60,5.762
1355.80,5.768
1356.00,5.76
1356.20,5.734
1356.40,5.748
1356.60,5.77
1356.80,5.752
1357.00,5.774
1357.20,5.748
1357.40,5.754
1357.60,5.756
1357.80,5.742
1358.00,5.774
1358.20,5.748
1358.40,5.762
1358.60,5.694
1358.80,5.792
1359.00,5.696
1359.20,5.784
1359.40,5.712
1359.60,5.79
1359.80,5.726
1360.00,5.844
1360.20,5.664
1360.40,5.754
1360.60,5.698
1360.80,5.74
1361.00,5.778
1361.20,5.71
1361.40,5.756
1361.60,5.784
1361.80,5.76
1362.00,5.734
1362.20,5.732
1362.40,5.71
1362.60,5.762
1362.80,5.796
1363.00,5.716
1363.20,5.768
1363.40,5.756
1363.60,5.708
1363.80,5.762
1364.00,5.756
1364.20,5.752
1364.40,5.756
1364.60,5.734
1364.80,5.742
1365.00,5.756
1365.20,5.74
1365.40,5.748
1365.60,5.752
1365.80,5.724
1366.00,5.786
1366.20,5.734
1366.40,5.782
1366.60,5.732
1366.80,5.74
1367.00,5.752
1367.20,5.71
1367.40,5.718
1367.60,5.742
1367.80,5.724
1368.00,5.776
1368.20,5.746
1368.40,5.778
1368.60,5.74
1368.80,5.782
1369.00,5.742
1369.20,5.718
1369.40,5.738
1369.60,5.774
1369.80,5.764
1370.00,5.79
1370.20,5.756
1370.40,5.742
1370.60,5.762
1370.80,5.754
1371.00,5.734
1371.20,5.804
1371.40,5.742
1371.60,5.786
1371.80,5.76
1372.00,5.748
1372.20,5.746
1372.40,5.734
1372.60,5.748
1372.80,5.76
1373.00,5.762
1373.20,5.8
1373.40,5.726
1373.60,5.76
1373.80,5.746
1374.00,5.76
1374.20,5.726
1374.40,5.732
1374.60,5.748
1374.80,5.79
1375.00,5.764
1375.20,5.73
1375.40,5.748
1375.60,5.732
1375.80,5.782
1376.00,5.698
1376.20,5.762
1376.40,5.734
1376.60,5.748
1376.80,5.732
1377.00,5.76
1377.20,5.732
1377.40,5.732
1377.60,5.73
1377.80,5.77
1378.00,5.82
1378.20,5.658
1378.40,5.732
1378.60,5.72
1378.80,5.77
1379.00,5.708
1379.20,5.748
1379.40,5.724
1379.60,5.77
1379.80,5.72
1380.00,5.748
1380.20,5.8
1380.40,5.672
1380.60,5.71
1380.80,5.768
1381.00,5.74
1381.20,5.748
1381.40,5.742
1381.60,5.76
1381.80,5.726
1382.00,5.784
1382.20,5.76
1382.40,5.738
1382.60,5.764
1382.80,5.748
1383.00,5.746
1383.20,5.712
1383.40,5.71
1383.60,5.768
1383.80,5.702
1384.00,5.77
1384.20,5.742
1384.40,5.752
1384.60,5.784
1384.80,5.724
1385.00,5.76
1385.20,5.732
1385.40,5.732
1385.60,5.782
1385.80,5.754
1386.00,5.782
1386.20,5.726
1386.40,5.778
1386.60,5.746
1386.80,5.726
1387.00,5.796
1387.20,5.754
1387.40,5.746
1387.60,5.812
1387.80,5.72
1388.00,5.76
1388.20,5.73
1388.40,5.764
1388.60,5.746
1388.80,5.718
1389.00,5.796
1389.20,5.762
1389.40,5.72
1389.60,5.764
1389.80,5.746
1390.00,5.784
1390.20,5.708
1390.40,5.762
1390.60,5.746
1390.80,5.768
1391.00,5.742
1391.20,5.776
1391.40,5.73
1391.60,5.764
1391.80,5.73
1392.00,5.718
1392.20,5.768
1392.40,5.734
1392.60,5.778
1392.80,5.754
1393.00,5.708
1393.20,5.732
1393.40,5.768
1393.60,5.708
1393.80,5.708
1394.00,5.748
1394.20,5.752
1394.40,5.746
1394.60,5.718
1394.80,5.752
1395.00,5.72
1395.20,5.768
1395.40,5.73
1395.60,5.72
1395.80,5.748
1396.00,5.844
1396.20,5.646
1396.40,5.726
1396.60,5.704
1396.80,5.774
1397.00,5.752
1397.20,5.776
1397.40,5.724
1397.60,5.76
1397.80,5.708
1398.00,5.732
1398.20,5.77
1398.40,5.734
1398.60,5.712
1398.80,5.734
1399.00,5.804
1399.20,5.782
1399.40,5.726
1399.60,5.69
1399.80,5.77
1400.00,5.71
1400.20,5.742
1400.40,5.726
1400.60,5.778
1400.80,5.73
1401.00,5.796
1401.20,5.718
1401.40,5.754
1401.60,5.74
1401.80,5.746
1402.00,5.746
1402.20,5.798
1402.40,5.762
1402.60,5.748
1402.80,5.74
1403.00,5.762
1403.20,5.73
1403.40,5.786
1403.60,5.712
1403.80,5.734
1404.00,5.784
1404.20,5.742
1404.40,5.796
1404.60,5.77
1404.80,5.768
1405.00,5.74
1405.20,5.764
1405.40,5.73
1405.60,5.71
1405.80,5.746
1406.00,5.784
1406.20,5.726
1406.40,5.784
1406.60,5.756
1406.80,5.716
1407.00,5.764
1407.20,5.742
1407.40,5.748
1407.60,5.732
1407.80,5.784
1408.00,5.756
1408.20,5.762
1408.40,5.738
1408.60,5.746
1408.80,5.738
1409.00,5.76
1409.20,5.774
1409.40,5.776
1409.60,5.754
1409.80,5.718
1410.00,5.764
1410.20,5.698
1410.40,5.748
1410.60,5.746
1410.80,5.762
1411.00,5.742
1411.20,5.746
1411.40,5.732
1411.60,5.756
1411.80,5.768
1412.00,5.73
1412.20,5.724
1412.40,5.756
1412.60,5.73
1412.80,5.734
1413.00,5.762
1413.20,5.708
1413.40,5.718
1413.60,5.74
1413.80,5.764
1414.00,5.828
1414.20,5.63
1414.40,5.764
1414.60,5.696
1414.80,5.776
1415.00,5.748
1415.20,5.732
1415.40,5.784
1415.60,5.746
1415.80,5.77
1416.00,5.724
1416.20,5.732
1416.40,5.784
1416.60,5.726
1416.80,5.756
1417.00,5.746
1417.20,5.742
1417.40,5.726
1417.60,5.756
1417.80,5.756
1418.00,5.702
1418.20,5.756
1418.40,5.762
1418.60,5.782
1418.80,5.776
1419.00,5.734
1419.20,5.718
1419.40,5.77
1419.60,5.734
1419.80,5.76
1420.00,5.786
1420.20,5.74
1420.40,5.712
1420.60,5.756
1420.80,5.782
1421.00,5.798
1421.20,5.768
1421.40,5.726
1421.60,5.74
1421.80,5.718
1422.00,5.8
1422.20,5.762
1422.40,5.784
1422.60,5.754
1422.80,5.708
1423.00,5.748
1423.20,5.8
1423.40,5.71
1423.60,5.762
1423.80,5.738
1424.00,5.724
1424.20,5.748
1424.40,5.778
1424.60,5.726
1424.80,5.764
1425.00,5.756
1425.20,5.726
1425.40,5.74
1425.60,5.782
1425.80,5.778
1426.00,5.73
1426.20,5.726
1426.40,5.702
1426.60,5.768
1426.80,5.768
1427.00,5.732
1427.20,5.738
1427.40,5.724
1427.60,5.742
1427.80,5.756
1428.00,5.718
1428.20,5.786
1428.40,5.74
1428.60,5.734
1428.80,5.74
1429.00,5.742
1429.20,5.752
1429.40,5.764
1429.60,5.734
1429.80,5.694
1430.00,5.764
1430.20,5.754
1430.40,5.72
1430.60,5.754
1430.80,5.748
1431.00,5.742
1431.20,5.72
1431.40,5.724
1431.60,5.74
1431.80,5.79
1432.00,5.798
1432.20,5.66
1432.40,5.782
1432.60,5.738
1432.80,5.746
1433.00,5.732
1433.20,5.712
1433.40,5.76
1433.60,5.742
1433.80,5.738
1434.00,5.776
1434.20,5.718
1434.40,5.786
1434.60,5.71
1434.80,5.71
1435.00,5.796
1435.20,5.792
1435.40,5.734
1435.60,5.764
1435.80,5.748
1436.00,5.74
1436.20,5.748
1436.40,5.748
1436.60,5.754
1436.80,5.726
1437.00,5.778
1437.20,5.71
1437.40,5.732
1437.60,5.732
1437.80,5.786
1438.00,5.768
1438.20,5.746
1438.40,5.774
1438.60,5.774
1438.80,5.754
1439.00,5.784
1439.20,5.746
1439.40,5.732
1439.60,5.752
1439.80,5.808
1440.00,5.72
1440.20,5.774
1440.40,5.708
1440.60,5.738
1440.80,5.768
1441.00,5.732
1441.20,5.77
1441.40,5.734
1441.60,5.762
1441.80,5.76
1442.00,5.74
1442.20,5.752
1442.40,5.708
1442.60,5.704
1442.80,5.798
1443.00,5.76
1443.20,5.74
1443.40,5.748
1443.60,5.734
1443.80,5.762
1444.00,5.738
1444.20,5.748
1444.40,5.724
1444.60,5.746
1444.80,5.726
1445.00,5.734
1445.20,5.782
1445.40,5.73
1445.60,5.77
1445.80,5.774
1446.00,5.712
1446.20,5.74
1446.40,5.732
1446.60,5.738
1446.80,5.718
1447.00,5.748
1447.20,5.748
1447.40,5.73
1447.60,5.764
1447.80,5.732
1448.00,5.72
1448.20,5.77
1448.40,5.752
1448.60,5.778
1448.80,5.712
1449.00,5.752
1449.20,5.74
1449.40,5.752
1449.60,5.746
1449.80,5.726
1450.00,5.814
1450.20,5.636
1450.40,5.742
1450.60,5.77
1450.80,5.77
1451.00,5.74
1451.20,5.73
1451.40,5.726
1451.60,5.754
1451.80,5.784
1452.00,5.716
1452.20,5.776
1452.40,5.748
1452.60,5.754
1452.80,5.786
1453.00,5.778
1453.20,5.742
1453.40,5.776
1453.60,5.756
1453.80,5.752
1454.00,5.732
1454.20,5.734
1454.40,5.76
1454.60,5.754
1454.80,5.764
1455.00,5.77
1455.20,5.812
1455.40,5.732
1455.60,5.718
1455.80,5.694
1456.00,5.756
1456.20,5.74
1456.40,5.754
1456.60,5.76
1456.80,5.724
1457.00,5.784
1457.20,5.734
1457.40,5.74
1457.60,5.724
1457.80,5.752
1458.00,5.764
1458.20,5.756
1458.40,5.76
1458.60,5.732
1458.80,5.73
1459.00,5.738
1459.20,5.778
1459.40,5.76
1459.60,5.702
1459.80,5.72
1460.00,5.818
1460.20,5.752
1460.40,5.716
1460.60,5.768
1460.80,5.764
1461.00,5.686
1461.20,5.71
1461.40,5.79
1461.60,5.718
1461.80,5.742
1462.00,5.746
1462.20,5.734
1462.40,5.756
1462.60,5.718
1462.80,5.712
1463.00,5.786
1463.20,5.754
1463.40,5.726
1463.60,5.734
1463.80,5.732
1464.00,5.768
1464.20,5.668
1464.40,5.734
1464.60,5.754
1464.80,5.742
1465.00,5.752
1465.20,5.756
1465.40,5.734
1465.60,5.708
1465.80,5.784
1466.00,5.71
1466.20,5.756
1466.40,5.754
1466.60,5.782
1466.80,5.718
1467.00,5.754
1467.20,5.732
1467.40,5.732
1467.60,5.782
1467.80,5.76
1468.00,5.85
1468.20,5.646
1468.40,5.74
1468.60,5.742
1468.80,5.756
1469.00,5.764
1469.20,5.752
1469.40,5.782
1469.60,5.738
1469.80,5.748
1470.00,5.702
1470.20,5.792
1470.40,5.74
1470.60,5.724
1470.80,5.764
1471.00,5.76
1471.20,5.738
1471.40,5.756
1471.60,5.76
1471.80,5.746
1472.00,5.754
1472.20,5.784
1472.40,5.776
1472.60,5.756
1472.80,5.73
1473.00,5.742
1473.20,5.718
1473.40,5.774
1473.60,5.73
1473.80,5.782
1474.00,5.762
1474.20,5.742
1474.40,5.724
1474.60,5.786
1474.80,5.76
1475.00,5.734
1475.20,5.702
1475.40,5.74
1475.60,5.748
1475.80,5.738
1476.00,5.734
1476.20,5.748
1476.40,5.742
1476.60,5.806
1476.80,5.732
1477.00,5.754
1477.20,5.734
1477.40,5.726
1477.60,5.76
1477.80,5.724
1478.00,5.742
1478.20,5.742
1478.40,5.72
1478.60,5.694
1478.80,5.764
1479.00,5.754
1479.20,5.738
1479.40,5.726
1479.60,5.742
1479.80,5.77
1480.00,5.686
1480.20,5.806
1480.40,5.742
1480.60,5.764
1480.80,5.742
1481.00,5.754
1481.20,5.698
1481.40,5.74
1481.60,5.762
1481.80,5.712
1482.00,5.74
1482.20,5.776
1482.40,5.756
1482.60,5.764
1482.80,5.702
1483.00,5.724
1483.20,5.804
1483.40,5.764
1483.60,5.752
1483.80,5.73
1484.00,5.782
1484.20,5.708
1484.40,5.742
1484.60,5.754
1484.80,5.77
1485.00,5.752
1485.20,5.724
1485.40,5.79
1485.60,5.76
1485.80,5.74
1486.00,5.84
1486.20,5.686
1486.40,5.73
1486.60,5.726
1486.80,5.716
1487.00,5.786
1487.20,5.776
1487.40,5.748
1487.60,5.768
1487.80,5.762
1488.00,5.738
1488.20,5.768
1488.40,5.754
1488.60,5.756
1488.80,5.776
1489.00,5.746
1489.20,5.782
1489.40,5.73
1489.60,5.776
1489.80,5.774
1490.00,5.754
1490.20,5.716
1490.40,5.82
1490.60,5.748
1490.80,5.762
1491.00,5.69
1491.20,5.726
1491.40,5.762
1491.60,5.738
1492.00,5.76
1492.20,5.696
1492.40,5.776
1492.60,5.782
1492.80,5.76
1493.00,5.768
1493.20,5.76
1493.40,5.716
1493.60,5.728
1493.80,5.732
1494.00,5.754
1494.20,5.748
1494.40,5.724
1494.60,5.726
1494.80,5.75
1495.00,5.74
1495.20,5.746
1495.40,5.746
1495.60,5.668
1495.80,5.748
1496.00,5.726
1496.20,5.746
1496.40,5.74
1496.60,5.756
1496.80,5.71
1497.00,5.738
1497.20,5.716
1497.40,5.784
1497.60,5.728
1497.80,5.786
1498.00,5.75
1498.20,5.754
1498.40,5.738
1498.60,5.74
1498.80,5.754
1499.00,5.706
1499.20,5.748
1499.40,5.738
1499.60,5.778
1499.80,5.762
1500.00,5.718
1500.20,5.75
1500.40,5.738
1500.60,5.748
1500.80,5.792
1501.00,5.718
1501.20,5.848
1501.40,5.624
1501.60,5.764
1501.80,5.76
1502.00,5.786
1502.20,5.728
1502.40,5.768
1502.60,5.772
1502.80,5.74
1503.00,5.762
1503.20,5.794
1503.40,5.764
1503.60,5.71
1503.80,5.734
1504.00,5.748
1504.20,5.764
1504.40,5.778
1504.60,5.728
1504.80,5.754
1505.00,5.76
1505.20,5.732
1505.40,5.76
1505.60,5.786
1505.80,5.764
1506.00,5.77
1506.20,5.716
1506.40,5.738
1506.60,5.738
1506.80,5.786
1507.00,5.756
1507.20,5.748
1507.40,5.754
1507.60,5.728
1507.80,5.724
1508.00,5.794
1508.20,5.792
1508.40,5.724
1508.60,5.726
1508.80,5.712
1509.00,5.742
1509.20,5.732
1509.40,5.762
1509.60,5.74
1509.80,5.748
1510.00,5.726
1510.20,5.76
1510.40,5.75
1510.60,5.74
1510.80,5.746
1511.00,5.738
1511.20,5.748
1511.40,5.742
1511.60,5.724
1511.80,5.808
1512.00,5.716
1512.20,5.756
1512.40,5.668
1512.60,5.724
1512.80,5.734
1513.00,5.786
1513.20,5.684
1513.40,5.762
1513.60,5.756
1513.80,5.706
1514.00,5.79
1514.20,5.794
1514.40,5.712
1514.60,5.732
1514.80,5.728
1515.00,5.748
1515.20,5.748
1515.40,5.724
1515.60,5.76
1515.80,5.748
1516.00,5.71
1516.20,5.72
1516.40,5.784
1516.60,5.74
1516.80,5.726
1517.00,5.764
1517.20,5.726
1517.40,5.726
1517.60,5.756
1517.80,5.778
1518.00,5.772
1518.20,5.75
1518.40,5.734
1518.60,5.778
1518.80,5.726
1519.00,5.718
1519.20,5.872
1519.40,5.66
1519.60,5.716
1519.80,5.772
1520.00,5.75
1520.20,5.768
1520.40,5.784
1520.60,5.74
1520.80,5.742
1521.00,5.716
1521.20,5.738
1521.40,5.792
1521.60,5.74
1521.80,5.77
1522.00,5.76
1522.20,5.76
1522.40,5.74
1522.60,5.762
1522.80,5.748
1523.00,5.778
1523.20,5.718
1523.40,5.742
1523.60,5.768
1523.80,5.728
1524.00,5.754
1524.20,5.764
1524.40,5.762
1524.60,5.764
1524.80,5.75
1525.00,5.726
1525.20,5.716
1525.40,5.742
1525.60,5.748
1525.80,5.734
1526.00,5.748
1526.20,5.738
1526.40,5.716
1526.60,5.764
1526.80,5.718
1527.00,5.746
1527.20,5.738
1527.40,5.72
1527.60,5.79
1527.80,5.742
1528.00,5.732
1528.20,5.746
1528.40,5.728
1528.60,5.738
1528.80,5.768
1529.00,5.724
1529.20,5.712
1529.40,5.718
1529.60,5.748
1529.80,5.776
1530.00,5.738
1530.20,5.734
1530.40,5.706
1530.60,5.782
1530.80,5.762
1531.00,5.716
1531.20,5.79
1531.40,5.748
1531.60,5.728
1531.80,5.716
1532.00,5.734
1532.20,5.762
1532.40,5.748
1532.60,5.718
1532.80,5.738
1533.00,5.732
1533.20,5.764
1533.40,5.724
1533.60,5.768
1533.80,5.718
1534.00,5.768
1534.20,5.748
1534.40,5.74
1534.60,5.756
1534.80,5.728
1535.00,5.734
1535.20,5.786
1535.40,5.738
1535.60,5.748
1535.80,5.728
1536.00,5.756
1536.20,5.76
1536.40,5.762
1536.60,5.772
1536.80,5.734
1537.00,5.776
1537.20,5.798
1537.40,5.672
1537.60,5.738
1537.80,5.762
1538.00,5.768
1538.20,5.732
1538.40,5.746
1538.60,5.74
1538.80,5.764
1539.00,5.754
1539.20,5.772
1539.40,5.748
1539.60,5.69
1539.80,5.738
1540.00,5.776
1540.20,5.732
1540.40,5.728
1540.60,5.768
1540.80,5.75
1541.00,5.746
1541.20,5.748
1541.40,5.77
1541.60,5.764
1541.80,5.724
1542.00,5.784
1542.20,5.724
1542.40,5.726
1542.60,5.756
1542.80,5.748
1543.00,5.794
1543.20,5.694
1543.40,5.764
1543.60,5.694
1543.80,5.784
1544.00,5.734
1544.20,5.726
1544.40,5.768
1544.60,5.742
1544.80,5.732
1545.00,5.762
1545.20,5.748
1545.40,5.734
1545.60,5.732
1545.80,5.762
1546.00,5.748
1546.20,5.754
1546.40,5.728
1546.60,5.764
1546.80,5.726
1547.00,5.75
1547.20,5.734
1547.40,5.716
1547.60,5.76
1547.80,5.764
1548.00,5.738
1548.20,5.716
1548.40,5.74
1548.60,5.738
1548.80,5.718
1549.00,5.732
1549.20,5.746
1549.40,5.748
1549.60,5.776
1549.80,5.762
1550.00,5.746
1550.20,5.748
1550.40,5.776
1550.60,5.738
1550.80,5.742
1551.00,5.726
1551.20,5.738
1551.40,5.76
1551.60,5.768
1551.80,5.764
1552.00,5.75
1552.20,5.748
1552.40,5.764
1552.60,5.792
1552.80,5.724
1553.00,5.748
1553.20,5.694
1553.40,5.734
1553.60,5.784
1553.80,5.724
1554.00,5.784
1554.20,5.772
1554.40,5.75
1554.60,5.762
1554.80,5.734
1555.00,5.768
1555.20,5.852
1555.40,5.694
1555.60,5.738
1555.80,5.746
1556.00,5.748
1556.20,5.748
1556.40,5.716
1556.60,5.776
1556.80,5.768
1557.00,5.74
1557.20,5.746
1557.40,5.77
1557.60,5.726
1557.80,5.762
1558.00,5.756
1558.20,5.732
1558.40,5.748
1558.60,5.74
1558.80,5.756
1559.00,5.754
1559.20,5.782
1559.40,5.716
1559.60,5.702
1559.80,5.784
1560.00,5.732
1560.20,5.728
1560.40,5.738
1560.60,5.77
1560.80,5.76
1561.00,5.764
1561.20,5.684
1561.40,5.712
1561.60,5.794
1561.80,5.742
1562.00,5.74
1562.20,5.712
1562.40,5.746
1562.60,5.778
1562.80,5.724
1563.00,5.75
1563.20,5.74
1563.40,5.72
1563.60,5.764
1563.80,5.76
1564.00,5.76
1564.20,5.738
1564.40,5.71
1564.60,5.742
1564.80,5.748
1565.00,5.748
1565.20,5.746
1565.40,5.712
1565.60,5.76
1565.80,5.75
1566.00,5.764
1566.20,5.742
1566.40,5.738
1566.60,5.742
1566.80,5.77
1567.00,5.772
1567.20,5.738
1567.40,5.734
1567.60,5.776
1567.80,5.746
1568.00,5.706
1568.20,5.786
1568.40,5.728
1568.60,5.762
1568.80,5.76
1569.00,5.716
1569.20,5.756
1569.40,5.76
1569.60,5.82
1569.80,5.75
1570.00,5.734
1570.20,5.76
1570.40,5.74
1570.60,5.706
1570.80,5.798
1571.00,5.748
1571.20,5.75
1571.40,5.754
1571.60,5.75
1571.80,5.718
1572.00,5.762
1572.20,5.738
1572.40,5.77
1572.60,5.748
1572.80,5.762
1573.00,5.762
1573.20,5.812
1573.40,5.68
1573.60,5.738
1573.80,5.726
1574.00,5.75
1574.20,5.72
1574.40,5.718
1574.60,5.772
1574.80,5.75
1575.00,5.74
1575.20,5.732
1575.40,5.768
1575.60,5.728
1575.80,5.734
1576.00,5.71
1576.20,5.716
1576.40,5.808
1576.60,5.718
1576.80,5.742
1577.00,5.734
1577.20,5.762
1577.40,5.702
1577.60,5.748
1577.80,5.726
1578.00,5.74
1578.20,5.76
1578.40,5.726
1578.60,5.734
1578.80,5.698
1579.00,5.814
1579.20,5.726
1579.40,5.684
1579.60,5.746
1579.80,5.768
1580.00,5.794
1580.20,5.75
1580.40,5.694
1580.60,5.716
1580.80,5.724
1581.00,5.756
1581.20,5.74
1581.40,5.804
1581.60,5.724
1581.80,5.724
1582.00,5.734
1582.20,5.762
1582.40,5.746
1582.60,5.738
1582.80,5.738
1583.00,5.776
1583.20,5.742
1583.40,5.756
1583.60,5.734
1583.80,5.738
1584.00,5.76
1584.20,5.75
1584.40,5.77
1584.60,5.778
1584.80,5.75
1585.00,5.738
1585.20,5.754
1585.40,5.742
1585.60,5.734
1585.80,5.792
1586.00,5.726
1586.20,5.728
1586.40,5.756
1586.60,5.756
1586.80,5.76
1587.00,5.784
1587.20,5.746
1587.40,5.772
1587.60,5.75
1587.80,5.77
1588.00,5.756
1588.20,5.748
1588.40,5.764
1588.60,5.734
1588.80,5.712
1589.00,5.77
1589.20,5.74
1589.40,5.74
1589.60,5.756
1589.80,5.756
1590.00,5.748
1590.20,5.726
1590.40,5.79
1590.60,5.76
1590.80,5.738
1591.00,5.74
1591.20,5.83
1591.40,5.652
1591.60,5.798
1591.80,5.682
1592.00,5.798
1592.20,5.754
1592.40,5.748
1592.60,5.728
1592.80,5.748
1593.00,5.772
1593.20,5.726
1593.40,5.728
1593.60,5.71
1593.80,5.76
1594.00,5.772
1594.20,5.74
1594.40,5.718
1594.60,5.718
1594.80,5.74
1595.00,5.724
1595.20,5.716
1595.40,5.72
1595.60,5.816
1595.80,5.74
1596.00,5.726
1596.20,5.724
1596.40,5.76
1596.60,5.71
1596.80,5.728
1597.00,5.74
1597.20,5.706
1597.40,5.762
1597.60,5.77
1597.80,5.762
1598.00,5.778
1598.20,5.732
1598.40,5.768
1598.60,5.732
1598.80,5.734
1599.00,5.738
1599.20,5.768
1599.40,5.776
1599.60,5.706
1599.80,5.748
1600.00,5.724
1600.20,5.746
1600.40,5.726
1600.60,5.778
1600.80,5.754
1601.00,5.748
1601.20,5.76
1601.40,5.726
1601.60,5.776
1601.80,5.75
1602.00,5.728
1602.20,5.732
1602.40,5.782
1602.60,5.772
1602.80,5.772
1603.00,5.756
1603.20,5.754
1603.40,5.718
1603.60,5.764
1603.80,5.77
1604.00,5.734
1604.20,5.75
1604.40,5.77
1604.60,5.754
1604.80,5.712
1605.00,5.748
1605.20,5.754
1605.40,5.75
1605.60,5.764
1605.80,5.768
1606.00,5.764
1606.20,5.72
1606.40,5.748
1606.60,5.724
1606.80,5.778
1607.00,5.77
1607.20,5.762
1607.40,5.724
1607.60,5.726
1607.80,5.77
1608.00,5.726
1608.20,5.74
1608.40,5.764
1608.60,5.71
1608.80,5.698
1609.00,5.762
1609.20,5.852
1609.40,5.668
1609.60,5.74
1609.80,5.782
1610.00,5.734
1610.20,5.738
1610.40,5.756
1610.60,5.738
1610.80,5.75
1611.00,5.756
1611.20,5.698
1611.40,5.8
1611.60,5.674
1611.80,5.738
1612.00,5.74
1612.20,5.75
1612.40,5.732
1612.60,5.738
1612.80,5.706
1613.00,5.764
1613.20,5.762
1613.40,5.732
1613.60,5.732
1613.80,5.698
1614.00,5.728
1614.20,5.782
1614.40,5.728
1614.60,5.712
1614.80,5.79
1615.00,5.712
1615.20,5.754
1615.40,5.732
1615.60,5.77
1615.80,5.734
1616.00,5.688
1616.20,5.718
1616.40,5.72
1616.60,5.778
1616.80,5.748
1617.00,5.76
1617.20,5.764
1617.40,5.712
1617.60,5.76
1617.80,5.77
1618.00,5.732
1618.20,5.772
1618.40,5.688
1618.60,5.718
1618.80,5.798
1619.00,5.768
1619.20,5.726
1619.40,5.786
1619.60,5.762
1619.80,5.724
1620.00,5.75
1620.20,5.778
1620.40,5.75
1620.60,5.756
1620.80,5.762
1621.00,5.732
1621.20,5.756
1621.40,5.734
1621.60,5.738
1621.80,5.778
1622.00,5.76
1622.20,5.76
1622.40,5.738
1622.60,5.754
1622.80,5.772
1623.00,5.746
1623.20,5.718
1623.40,5.756
1623.60,5.762
1623.80,5.764
1624.00,5.74
1624.20,5.734
1624.40,5.746
1624.60,5.738
1624.80,5.754
1625.00,5.738
1625.20,5.748
1625.40,5.764
1625.60,5.748
1625.80,5.728
1626.00,5.74
1626.20,5.762
1626.40,5.738
1626.60,5.734
1626.80,5.746
1627.00,5.748
1627.20,5.83
1627.40,5.658
1627.60,5.756
1627.80,5.696
1628.00,5.734
1628.20,5.732
1628.40,5.77
1628.60,5.702
1628.80,5.748
1629.00,5.782
1629.20,5.74
1629.40,5.756
1629.60,5.72
1629.80,5.732
1630.00,5.706
1630.20,5.732
1630.40,5.734
1630.60,5.778
1630.80,5.72
1631.00,5.762
1631.20,5.726
1631.40,5.726
1631.60,5.772
1631.80,5.74
1632.00,5.72
1632.20,5.798
1632.40,5.706
1632.60,5.746
1632.80,5.734
1633.00,5.716
1633.20,5.696
1633.40,5.786
1633.60,5.734
1633.80,5.764
1634.00,5.756
1634.20,5.748
1634.40,5.72
1634.60,5.734
1634.80,5.74
1635.00,5.778
1635.20,5.762
1635.40,5.732
1635.60,5.728
1635.80,5.782
1636.00,5.72
1636.20,5.772
1636.40,5.746
1636.60,5.72
1636.80,5.75
1637.00,5.776
1637.20,5.74
1637.40,5.754
1637.60,5.772
1637.80,5.748
1638.00,5.754
1638.20,5.75
1638.40,5.762
1638.60,5.732
1638.80,5.776
1639.00,5.738
1639.20,5.74
1639.40,5.764
1639.60,5.734
1639.80,5.75
1640.00,5.76
1640.20,5.754
1640.40,5.718
1640.60,5.75
1640.80,5.728
1641.00,5.738
1641.20,5.79
1641.40,5.734
1641.60,5.716
1641.80,5.772
1642.00,5.768
1642.20,5.704
1642.40,5.792
1642.60,5.738
1642.80,5.712
1643.00,5.76
1643.20,5.742
1643.40,5.75
1643.60,5.694
1643.80,5.762
1644.00,5.688
1644.20,5.74
1644.40,5.724
1644.60,5.756
1644.80,5.688
1645.00,5.756
1645.20,5.808
1645.40,5.684
1645.60,5.704
1645.80,5.702
1646.00,5.734
1646.20,5.734
1646.40,5.764
1646.60,5.75
1646.80,5.718
1647.00,5.746
1647.20,5.738
1647.40,5.74
1647.60,5.756
1647.80,5.748
1648.00,5.772
1648.20,5.68
1648.40,5.748
1648.60,5.782
1648.80,5.716
1649.00,5.764
1649.20,5.76
1649.40,5.798
1649.60,5.684
1649.80,5.718
1650.00,5.754
1650.20,5.764
1650.40,5.658
1650.60,5.772
1650.80,5.746
1651.00,5.738
1651.20,5.762
1651.40,5.754
1651.60,5.776
1651.80,5.768
1652.00,5.738
1652.20,5.724
1652.40,5.742
1652.60,5.748
1652.80,5.798
1653.00,5.72
1653.20,5.746
1653.40,5.732
1653.60,5.74
1653.80,5.782
1654.00,5.734
1654.20,5.792
1654.40,5.778
1654.60,5.762
1654.80,5.756
1655.00,5.8
1655.20,5.754
1655.40,5.726
1655.60,5.738
1655.80,5.738
1656.00,5.742
1656.20,5.704
1656.40,5.768
1656.60,5.732
1656.80,5.724
1657.00,5.77
1657.20,5.754
1657.40,5.756
1657.60,5.726
1657.80,5.742
1658.00,5.748
1658.20,5.764
1658.40,5.728
1658.60,5.738
1658.80,5.75
1659.00,5.718
1659.20,5.76
1659.40,5.75
1659.60,5.742
1659.80,5.76
1660.00,5.71
1660.20,5.718
1660.40,5.728
1660.60,5.772
1660.80,5.77
1661.00,5.76
1661.20,5.728
1661.40,5.728
1661.60,5.726
1661.80,5.734
1662.00,5.762
1662.20,5.746
1662.40,5.738
1662.60,5.732
1662.80,5.75
1663.00,5.726
1663.20,5.812
1663.40,5.668
1663.60,5.696
1663.80,5.716
1664.00,5.762
1664.20,5.8
1664.40,5.706
1664.60,5.75
1664.80,5.68
1665.00,5.718
1665.20,5.728
1665.40,5.748
1665.60,5.728
1665.80,5.718
1666.00,5.792
1666.20,5.76
1666.40,5.71
1666.60,5.738
1666.80,5.762
1667.00,5.738
1667.20,5.724
1667.40,5.746
1667.60,5.746
1667.80,5.79
1668.00,5.746
1668.20,5.718
1668.40,5.768
1668.60,5.754
1668.80,5.75
1669.00,5.756
1669.20,5.746
1669.40,5.754
1669.60,5.772
1669.80,5.712
1670.00,5.794
1670.20,5.674
1670.40,5.772
1670.60,5.778
1670.80,5.728
1671.00,5.756
1671.20,5.794
1671.40,5.738
1671.60,5.76
1671.80,5.726
1672.00,5.75
1672.20,5.746
1672.40,5.77
1672.60,5.734
1672.80,5.712
1673.00,5.776
1673.20,5.724
1673.40,5.794
1673.60,5.746
1673.80,5.724
1674.00,5.76
1674.20,5.776
1674.40,5.716
1674.60,5.732
1674.80,5.762
1675.00,5.74
1675.20,5.718
1675.40,5.77
1675.60,5.74
1675.80,5.734
1676.00,5.782
1676.20,5.738
1676.40,5.728
1676.60,5.75
1676.80,5.696
1677.00,5.792
1677.20,5.762
1677.40,5.704
1677.60,5.706
1677.80,5.712
1678.00,5.754
1678.20,5.74
1678.40,5.778
1678.60,5.748
1678.80,5.724
1679.00,5.75
1679.20,5.72
1679.40,5.77
1679.60,5.71
1679.80,5.726
1680.00,5.72
1680.20,5.76
1680.40,5.706
1680.60,5.754
1680.80,5.75
1681.00,5.77
1681.20,5.8
1681.40,5.68
1681.60,5.702
1681.80,5.762
1682.00,5.762
1682.20,5.718
1682.40,5.674
1682.60,5.74
1682.80,5.814
1683.00,5.738
1683.20,5.746
1683.40,5.702
1683.60,5.748
1683.80,5.756
1684.00,5.748
1684.20,5.762
1684.40,5.74
1684.60,5.762
1684.80,5.724
1685.00,5.746
1685.20,5.712
1685.40,5.746
1685.60,5.748
1685.80,5.764
1686.00,5.724
1686.20,5.786
1686.40,5.756
1686.60,5.726
1686.80,5.726
1687.00,5.748
1687.20,5.776
1687.40,5.748
1687.60,5.786
1687.80,5.738
1688.00,5.754
1688.20,5.738
1688.40,5.764
1688.60,5.756
1688.80,5.724
1689.00,5.716
1689.20,5.754
1689.40,5.756
1689.60,5.792
1689.80,5.76
1690.00,5.754
1690.20,5.764
1690.40,5.716
1690.60,5.734
1690.80,5.746
1691.00,5.768
1691.20,5.776
1691.40,5.724
1691.60,5.724
1691.80,5.746
1692.00,5.718
1692.20,5.768
1692.40,5.734
1692.60,5.79
1692.80,5.72
1693.00,5.742
1693.20,5.748
1693.40,5.738
1693.60,5.738
1693.80,5.748
1694.00,5.738
1694.20,5.764
1694.40,5.696
1694.60,5.734
1694.80,5.748
1695.00,5.718
1695.20,5.748
1695.40,5.728
1695.60,5.746
1695.80,5.706
1696.00,5.756
1696.20,5.74
1696.40,5.762
1696.60,5.702
1696.80,5.756
1697.00,5.71
1697.20,5.756
1697.40,5.748
1697.60,5.746
1697.80,5.726
1698.00,5.706
1698.20,5.748
1698.40,5.762
1698.60,5.778
1698.80,5.704
1699.00,5.732
1699.20,5.864
1699.40,5.63
1699.60,5.724
1699.80,5.726
1700.00,5.728
1700.20,5.75
1700.40,5.674
1700.60,5.764
1700.80,5.784
1701.00,5.696
1701.20,5.726
1701.40,5.768
1701.60,5.742
1701.80,5.784
1702.00,5.762
1702.20,5.756
1702.40,5.704
1702.60,5.822
1702.80,5.702
1703.00,5.74
1703.20,5.746
1703.40,5.756
1703.60,5.738
1703.80,5.75
1704.00,5.74
1704.20,5.704
1704.40,5.79
1704.60,5.74
1704.80,5.712
1705.00,5.782
1705.20,5.726
1705.40,5.742
1705.60,5.746
1705.80,5.74
1706.00,5.784
1706.20,5.746
1706.40,5.71
1706.60,5.754
1706.80,5.738
1707.00,5.732
1707.20,5.726
1707.40,5.8
1707.60,5.746
1707.80,5.768
1708.00,5.74
1708.20,5.738
1708.40,5.728
1708.60,5.754
1708.80,5.74
1709.00,5.746
1709.20,5.716
1709.40,5.764
1709.60,5.724
1709.80,5.754
1710.00,5.74
1710.20,5.742
1710.40,5.738
1710.60,5.71
1710.80,5.782
1711.00,5.706
1711.20,5.762
1711.40,5.756
1711.60,5.75
1711.80,5.72
1712.00,5.738
1712.20,5.716
1712.40,5.782
1712.60,5.72
1712.80,5.732
1713.00,5.698
1713.20,5.732
1713.40,5.726
1713.60,5.756
1713.80,5.754
1714.00,5.724
1714.20,5.754
1714.40,5.76
1714.60,5.726
1714.80,5.74
1715.00,5.746
1715.20,5.728
1715.40,5.778
1715.60,5.772
1715.80,5.75
1716.00,5.726
1716.20,5.694
1716.40,5.734
1716.60,5.754
1716.80,5.726
1717.00,5.776
1717.20,5.816
1717.40,5.652
1717.60,5.754
1717.80,5.742
1718.00,5.702
1718.20,5.738
1718.40,5.742
1718.60,5.756
1718.80,5.75
1719.00,5.746
1719.20,5.738
1719.40,5.748
1719.60,5.776
1719.80,5.734
1720.00,5.734
1720.20,5.778
1720.40,5.71
1720.60,5.768
1720.80,5.754
1721.00,5.772
1721.20,5.778
1721.40,5.738
1721.60,5.75
1721.80,5.746
1722.00,5.732
1722.20,5.738
1722.40,5.764
1722.60,5.782
1722.80,5.718
1723.00,5.74
1723.20,5.76
1723.40,5.746
1723.60,5.756
1723.80,5.706
1724.00,5.75
1724.20,5.772
1724.40,5.768
1724.60,5.738
1724.80,5.704
1725.00,5.804
1725.20,5.728
1725.40,5.748
1725.60,5.716
1725.80,5.698
1726.00,5.792
1726.20,5.778
1726.40,5.72
1726.60,5.74
1726.80,5.738
1727.00,5.728
1727.20,5.776
1727.40,5.716
1727.60,5.716
1727.80,5.732
1728.00,5.738
1728.20,5.74
1728.40,5.738
1728.60,5.728
1728.80,5.738
1729.00,5.728
1729.20,5.704
1729.40,5.738
1729.60,5.776
1729.80,5.694
1730.00,5.76
1730.20,5.75
1730.40,5.734
1730.60,5.748
1730.80,5.756
1731.00,5.676
1731.20,5.698
1731.40,5.798
1731.60,5.76
1731.80,5.742
1732.00,5.704
1732.20,5.786
1732.40,5.706
1732.60,5.742
1732.80,5.732
1733.00,5.762
1733.20,5.712
1733.40,5.75
1733.60,5.74
1733.80,5.748
1734.00,5.74
1734.20,5.778
1734.40,5.768
1734.60,5.71
1734.80,5.718
1735.00,5.748
1735.20,5.836
1735.40,5.676
1735.60,5.768
1735.80,5.74
1736.00,5.748
1736.20,5.764
1736.40,5.738
1736.60,5.724
1736.80,5.75
1737.00,5.74
1737.20,5.75
1737.40,5.76
1737.60,5.742
1737.80,5.74
1738.00,5.75
1738.20,5.72
1738.40,5.764
1738.60,5.782
1738.80,5.738
1739.00,5.74
1739.20,5.782
1739.40,5.76
1739.60,5.772
1739.80,5.75
1740.00,5.702
1740.20,5.786
1740.40,5.716
1740.60,5.756
1740.80,5.726
1741.00,5.762
1741.20,5.69
1741.40,5.732
1741.60,5.706
1741.80,5.79
1742.00,5.764
1742.20,5.728
1742.40,5.728
1742.60,5.754
1742.80,5.718
1743.00,5.734
1743.20,5.724
1743.40,5.784
1743.60,5.72
1743.80,5.718
1744.00,5.746
1744.20,5.732
1744.40,5.74
1744.60,5.764
1744.80,5.756
1745.00,5.712
1745.20,5.732
1745.40,5.75
1745.60,5.726
1745.80,5.728
1746.00,5.732
1746.20,5.768
1746.40,5.732
1746.60,5.716
1746.80,5.718
1747.00,5.74
1747.20,5.782
1747.40,5.746
1747.60,5.728
1747.80,5.75
1748.00,5.732
1748.20,5.756
1748.40,5.748
1748.60,5.706
1748.80,5.74
1749.00,5.762
1749.20,5.748
1749.40,5.732
1749.60,5.75
1749.80,5.768
1750.00,5.696
1750.20,5.738
1750.40,5.772
1750.60,5.688
1750.80,5.74
1751.00,5.748
1751.20,5.75
1751.40,5.76
1751.60,5.728
1751.80,5.762
1752.00,5.756
1752.20,5.75
1752.40,5.718
1752.60,5.77
1752.80,5.764
1753.00,5.748
1753.20,5.82
1753.40,5.666
1753.60,5.754
1753.80,5.712
1754.00,5.776
1754.20,5.762
1754.40,5.77
1754.60,5.718
1754.80,5.764
1755.00,5.732
1755.20,5.74
1755.40,5.726
1755.60,5.768
1755.80,5.79
1756.00,5.768
1756.20,5.652
1756.40,5.778
1756.60,5.782
1756.80,5.742
1757.00,5.724
1757.20,5.726
1757.40,5.734
1757.60,5.748
1757.80,5.76
1758.00,5.742
1758.20,5.79
1758.40,5.754
1758.60,5.734
1758.80,5.74
1759.00,5.72
1759.20,5.734
1759.40,5.764
1759.60,5.76
1759.80,5.728
1760.00,5.702
1760.20,5.734
1760.40,5.782
1760.60,5.754
1760.80,5.716
1761.00,5.694
1761.20,5.75
1761.40,5.702
1761.60,5.724
1761.80,5.746
1762.00,5.726
1762.20,5.772
1762.40,5.68
1762.60,5.764
1762.80,5.738
1763.00,5.726
1763.20,5.76
1763.40,5.748
1763.60,5.738
1763.80,5.748
1764.00,5.738
1764.20,5.734
1764.40,5.672
1764.60,5.756
1764.80,5.72
1765.00,5.768
1765.20,5.762
1765.40,5.742
1765.60,5.72
1765.80,5.732
1766.00,5.75
1766.20,5.712
1766.40,5.762
1766.60,5.756
1766.80,5.718
1767.00,5.724
1767.20,5.726
1767.40,5.762
1767.60,5.738
1767.80,5.772
1768.00,5.742
1768.20,5.698
1768.40,5.738
1768.60,5.77
1768.80,5.728
1769.00,5.724
1769.20,5.772
1769.40,5.75
1769.60,5.756
1769.80,5.748
1770.00,5.746
1770.20,5.76
1770.40,5.72
1770.60,5.784
1770.80,5.75
1771.00,5.734
1771.20,5.842
1771.40,5.668
1771.60,5.784
1771.80,5.726
1772.00,5.734
1772.20,5.772
1772.40,5.734
1772.60,5.764
1772.80,5.728
1773.00,5.74
1773.20,5.738
1773.40,5.794
1773.60,5.772
1773.80,5.748
1774.00,5.724
1774.20,5.732
1774.40,5.738
1774.60,5.762
1774.80,5.748
1775.00,5.77
1775.20,5.726
1775.40,5.726
1775.60,5.75
1775.80,5.754
1776.00,5.726
1776.20,5.764
1776.40,5.738
1776.60,5.724
1776.80,5.748
1777.00,5.704
1777.20,5.746
1777.40,5.768
1777.60,5.75
1777.80,5.74
1778.00,5.734
1778.20,5.728
1778.40,5.74
1778.60,5.72
1778.80,5.684
1779.00,5.782
1779.20,5.732
1779.40,5.74
1779.60,5.726
1779.80,5.772
1780.00,5.702
1780.20,5.728
1780.40,5.734
1780.60,5.746
1780.80,5.762
1781.00,5.738
1781.20,5.69
1781.40,5.762
1781.60,5.782
1781.80,5.726
1782.00,5.782
1782.20,5.718
1782.40,5.762
1782.60,5.726
1782.80,5.716
1783.00,5.734
1783.20,5.77
1783.40,5.74
1783.60,5.742
1783.80,5.738
1784.00,5.726
1784.20,5.738
1784.40,5.706
1784.60,5.772
1784.80,5.738
1785.00,5.776
1785.20,5.732
1785.40,5.726
1785.60,5.776
1785.80,5.712
1786.00,5.75
1786.20,5.74
1786.40,5.756
1786.60,5.768
1786.80,5.726
1787.00,5.77
1787.20,5.728
1787.40,5.786
1787.60,5.738
1787.80,5.728
1788.00,5.75
1788.20,5.74
1788.40,5.72
1788.60,5.762
1788.80,5.764
1789.00,5.75
1789.20,5.86
1789.40,5.632
1789.60,5.748
1789.80,5.762
1790.00,5.728
1790.20,5.768
1790.40,5.76
1790.60,5.728
1790.80,5.756
1791.00,5.76
1791.20,5.724
1791.40,5.746
1791.60,5.742
1791.80,5.734
1792.20,5.746
1792.40,5.774
1792.60,5.702
1792.80,5.744
1793.00,5.776
1793.20,5.738
1793.40,5.752
1793.60,5.78
1793.80,5.73
1794.00,5.782
1794.20,5.716
1794.40,5.724
1794.60,5.746
1794.80,5.698
1795.00,5.716
1795.20,5.714
1795.40,5.76
1795.60,5.758
1795.80,5.684
1796.00,5.744
1796.20,5.732
1796.40,5.744
1796.60,5.738
1796.80,5.744
1797.00,5.736
1797.20,5.724
1797.40,5.738
1797.60,5.698
1797.80,5.754
1798.00,5.79
1798.20,5.774
1798.40,5.736
1798.60,5.698
1798.80,5.73
1799.00,5.742
1799.20,5.754
1799.40,5.758
1799.60,5.72
1799.80,5.732
1800.00,5.752
1800.20,5.746
1800.40,5.722
1800.60,5.764
1800.80,5.764
1801.00,5.728
1801.20,5.772
1801.40,5.738
1801.60,5.764
1801.80,5.716
1802.00,5.766
1802.20,5.75
1802.40,5.744
1802.60,5.758
1802.80,5.75
1803.00,5.746
1803.20,5.776
1803.40,5.786
1803.60,5.7
1803.80,5.75
1804.00,5.774
1804.20,5.732
1804.40,5.862
1804.60,5.628
1804.80,5.802
1805.00,5.752
1805.20,5.738
1805.40,5.774
1805.60,5.754
1805.80,5.728
1806.00,5.758
1806.20,5.72
1806.40,5.774
1806.60,5.738
1806.80,5.768
1807.00,5.76
1807.20,5.698
1807.40,5.772
1807.60,5.716
1807.80,5.758
1808.00,5.758
1808.20,5.774
1808.40,5.76
1808.60,5.764
1808.80,5.714
1809.00,5.73
1809.20,5.722
1809.40,5.746
1809.60,5.752
1809.80,5.75
1810.00,5.75
1810.20,5.732
1810.40,5.73
1810.60,5.766
1810.80,5.732
1811.00,5.724
1811.20,5.76
1811.40,5.73
1811.60,5.728
1811.80,5.742
1812.00,5.67
1812.20,5.73
1812.40,5.758
1812.60,5.744
1812.80,5.75
1813.00,5.758
1813.20,5.698
1813.40,5.742
1813.60,5.742
1813.80,5.724
1814.00,5.76
1814.20,5.754
1814.40,5.768
1814.60,5.73
1814.80,5.728
1815.00,5.73
1815.20,5.76
1815.40,5.764
1815.60,5.72
1815.80,5.774
1816.00,5.75
1816.20,5.728
1816.40,5.744
1816.60,5.774
1816.80,5.73
1817.00,5.714
1817.20,5.722
1817.40,5.774
1817.60,5.738
1817.80,5.75
1818.00,5.808
1818.20,5.732
1818.40,5.73
1818.60,5.744
1818.80,5.768
1819.00,5.744
1819.20,5.75
1819.40,5.752
1819.60,5.76
1819.80,5.746
1820.00,5.812
1820.20,5.714
1820.40,5.706
1820.60,5.802
1820.80,5.728
1821.00,5.746
1821.20,5.768
1821.40,5.746
1821.60,5.732
1821.80,5.754
1822.00,5.764
1822.20,5.766
1822.40,5.842
1822.60,5.64
1822.80,5.732
1823.00,5.78
1823.20,5.73
1823.40,5.736
1823.60,5.766
1823.80,5.716
1824.00,5.742
1824.20,5.754
1824.40,5.788
1824.60,5.724
1824.80,5.73
1825.00,5.73
1825.20,5.772
1825.40,5.722
1825.60,5.736
1825.80,5.764
1826.00,5.71
1826.20,5.716
1826.40,5.808
1826.60,5.722
1826.80,5.698
1827.00,5.752
1827.20,5.722
1827.40,5.744
1827.60,5.75
1827.80,5.724
1828.00,5.698
1828.20,5.706
1828.40,5.754
1828.60,5.736
1828.80,5.716
1829.00,5.746
1829.20,5.73
1829.40,5.732
1829.60,5.768
1829.80,5.738
1830.00,5.772
1830.20,5.75
1830.40,5.732
1830.60,5.732
1830.80,5.73
1831.00,5.738
1831.20,5.766
1831.40,5.75
1831.60,5.732
1831.80,5.752
1832.00,5.736
1832.20,5.75
1832.40,5.752
1832.60,5.724
1832.80,5.702
1833.00,5.744
1833.20,5.772
1833.40,5.742
1833.60,5.76
1833.80,5.724
1834.00,5.714
1834.20,5.72
1834.40,5.72
1834.60,5.804
1834.80,5.754
1835.00,5.722
1835.20,5.736
1835.40,5.766
1835.60,5.724
1835.80,5.776
1836.00,5.746
1836.20,5.75
1836.40,5.794
1836.60,5.714
1836.80,5.728
1837.00,5.75
1837.20,5.782
1837.40,5.724
1837.60,5.76
1837.80,5.75
1838.00,5.752
1838.20,5.786
1838.40,5.746
1838.60,5.766
1838.80,5.728
1839.00,5.732
1839.20,5.754
1839.40,5.752
1839.60,5.702
1839.80,5.774
1840.00,5.73
1840.20,5.78
1840.40,5.812
1840.60,5.672
1840.80,5.764
1841.00,5.746
1841.20,5.706
1841.40,5.728
1841.60,5.752
1841.80,5.716
1842.00,5.772
1842.20,5.738
1842.40,5.772
1842.60,5.758
1842.80,5.708
1843.00,5.75
1843.20,5.714
1843.40,5.75
1843.60,5.742
1843.80,5.804
1844.00,5.72
1844.20,5.67
1844.40,5.768
1844.60,5.73
1844.80,5.744
1845.00,5.75
1845.20,5.746
1845.40,5.744
1845.60,5.746
1845.80,5.71
1846.00,5.766
1846.20,5.686
1846.40,5.78
1846.60,5.722
1846.80,5.75
1847.00,5.754
1847.20,5.708
1847.40,5.724
1847.60,5.706
1847.80,5.774
1848.00,5.738
1848.20,5.714
1848.40,5.73
1848.60,5.732
1848.80,5.774
1849.00,5.728
1849.20,5.79
1849.40,5.71
1849.60,5.736
1849.80,5.7
1850.00,5.732
1850.20,5.758
1850.40,5.754
1850.60,5.698
1850.80,5.76
1851.00,5.782
1851.20,5.774
1851.40,5.71
1851.60,5.738
1851.80,5.742
1852.00,5.702
1852.20,5.742
1852.40,5.774
1852.60,5.754
1852.80,5.782
1853.00,5.73
1853.20,5.798
1853.40,5.744
1853.60,5.768
1853.80,5.746
1854.00,5.742
1854.20,5.754
1854.40,5.76
1854.60,5.744
1854.80,5.716
1855.00,5.728
1855.20,5.788
1855.40,5.752
1855.60,5.746
1855.80,5.716
1856.00,5.746
1856.20,5.75
1856.40,5.794
1856.60,5.744
1856.80,5.746
1857.00,5.782
1857.20,5.732
1857.40,5.722
1857.60,5.782
1857.80,5.728
1858.00,5.73
1858.20,5.736
1858.40,5.874
1858.60,5.628
1858.80,5.736
1859.00,5.744
1859.20,5.764
1859.40,5.72
1859.60,5.744
1859.80,5.728
1860.00,5.764
1860.20,5.754
1860.40,5.746
1860.60,5.736
1860.80,5.766
1861.00,5.716
1861.20,5.774
1861.40,5.736
1861.60,5.73
1861.80,5.746
1862.00,5.738
1862.20,5.732
1862.40,5.714
1862.60,5.754
1862.80,5.736
1863.00,5.746
1863.20,5.724
1863.40,5.716
1863.60,5.746
1863.80,5.698
1864.00,5.758
1864.20,5.744
1864.40,5.72
1864.60,5.728
1864.80,5.758
1865.00,5.73
1865.20,5.724
1865.40,5.716
1865.60,5.732
1865.80,5.764
1866.00,5.742
1866.20,5.766
1866.40,5.742
1866.60,5.736
1866.80,5.75
1867.00,5.752
1867.20,5.746
1867.40,5.742
1867.60,5.752
1867.80,5.708
1868.00,5.78
1868.20,5.722
1868.40,5.782
1868.60,5.724
1868.80,5.73
1869.00,5.73
1869.20,5.75
1869.40,5.752
1869.60,5.812
1869.80,5.728
1870.00,5.738
1870.20,5.772
1870.40,5.744
1870.60,5.73
1870.80,5.736
1871.00,5.746
1871.20,5.812
1871.40,5.736
1871.60,5.732
1871.80,5.764
1872.00,5.782
1872.20,5.75
1872.40,5.68
1872.60,5.776
1872.80,5.804
1873.00,5.702
1873.20,5.73
1873.40,5.738
1873.60,5.76
1873.80,5.768
1874.00,5.772
1874.20,5.72
1874.40,5.742
1874.60,5.738
1874.80,5.78
1875.00,5.744
1875.20,5.754
1875.40,5.736
1875.60,5.78
1875.80,5.728
1876.00,5.73
1876.20,5.708
1876.40,5.818
1876.60,5.656
1876.80,5.764
1877.00,5.736
1877.20,5.746
1877.40,5.72
1877.60,5.73
1877.80,5.72
1878.00,5.776
1878.20,5.73
1878.40,5.752
1878.60,5.732
1878.80,5.716
1879.00,5.746
1879.20,5.728
1879.40,5.76
1879.60,5.728
1879.80,5.714
1880.00,5.764
1880.20,5.746
1880.40,5.722
1880.60,5.75
1880.80,5.744
1881.00,5.694
1881.20,5.738
1881.40,5.71
1881.60,5.766
1881.80,5.768
1882.00,5.708
1882.20,5.738
1882.40,5.786
1882.60,5.678
1882.80,5.768
1883.00,5.758
1883.20,5.758
1883.40,5.744
1883.60,5.736
1883.80,5.758
1884.00,5.732
1884.20,5.71
1884.40,5.78
1884.60,5.738
1884.80,5.754
1885.00,5.754
1885.20,5.794
1885.40,5.728
1885.60,5.744
1885.80,5.76
1886.00,5.732
1886.20,5.744
1886.40,5.728
1886.60,5.746
1886.80,5.768
1887.00,5.752
1887.20,5.788
1887.40,5.71
1887.60,5.72
1887.80,5.776
1888.00,5.75
1888.20,5.736
1888.40,5.698
1888.60,5.774
1888.80,5.772
1889.00,5.724
1889.20,5.776
1889.40,5.754
1889.60,5.724
1889.80,5.742
1890.00,5.738
1890.20,5.738
1890.40,5.746
1890.60,5.716
1890.80,5.776
1891.00,5.738
1891.20,5.78
1891.40,5.744
1891.60,5.716
1891.80,5.708
1892.00,5.752
1892.20,5.758
1892.40,5.724
1892.60,5.72
1892.80,5.752
1893.00,5.772
1893.20,5.7
1893.40,5.774
1893.60,5.75
1893.80,5.728
1894.00,5.732
1894.20,5.72
1894.40,5.808
1894.60,5.68
1894.80,5.742
1895.00,5.724
1895.20,5.774
1895.40,5.692
1895.60,5.736
1895.80,5.676
1896.00,5.768
1896.20,5.772
1896.40,5.722
1896.60,5.746
1896.80,5.774
1897.00,5.716
1897.20,5.732
1897.40,5.71
1897.60,5.708
1897.80,5.744
1898.00,5.752
1898.20,5.766
1898.40,5.694
1898.60,5.76
1898.80,5.738
1899.00,5.746
1899.20,5.746
1899.40,5.764
1899.60,5.742
1899.80,5.738
1900.00,5.72
1900.20,5.742
1900.40,5.746
1900.60,5.732
1900.80,5.764
1901.00,5.7
1901.20,5.774
1901.40,5.768
1901.60,5.744
1901.80,5.776
1902.00,5.72
1902.20,5.746
1902.40,5.758
1902.60,5.728
1902.80,5.744
1903.00,5.708
1903.20,5.758
1903.40,5.786
1903.60,5.766
1903.80,5.716
1904.00,5.752
1904.20,5.818
1904.40,5.824
1904.60,5.768
1904.80,5.84
1905.00,11.04
1905.20,11.448
1905.40,11.142
1905.60,10.662
1905.80,10.964
1906.00,12.824
1906.20,23.434
1906.40,25.13
1906.60,25.214
1906.80,25.142
1907.00,25.158
1907.20,25.148
1907.40,25.148
1907.60,25.16
1907.80,25.174
1908.00,25.256
1908.20,25.136
1908.40,25.148
1908.60,25.21
1908.80,25.156
1909.00,25.156
1909.20,25.136
1909.40,25.216
1909.60,25.2
1909.80,25.172
1910.00,25.12
1910.20,25.192
1910.40,25.158
1910.60,25.126
1910.80,25.256
1911.00,25.158
1911.20,25.144
1911.40,25.172
1911.60,25.12
1911.80,25.208
1912.00,25.136
1912.20,25.192
1912.40,25.606
1912.60,24.704
1912.80,25.158
1913.00,25.182
1913.20,25.17
1913.40,25.144
1913.60,25.27
1913.80,25.126
1914.00,25.164
1914.20,25.106
1914.40,25.208
1914.60,25.104
1914.80,25.556
1915.00,24.996
1915.20,25.15
1915.40,25.17
1915.60,25.156
1915.80,25.178
1916.00,25.138
1916.20,25.232
1916.40,25.202
1916.60,25.156
1916.80,25.148
1917.00,25.192
1917.20,25.166
1917.40,25.152
1917.60,25.218
1917.80,25.158
1918.00,25.18
1918.20,25.144
1918.40,25.188
1918.60,25.166
1918.80,25.234
1919.00,25.248
1919.20,25.158
1919.40,25.152
1919.60,25.178
1919.80,25.166
1920.00,25.186
1920.20,25.186
1920.40,25.248
1920.60,25.16
1920.80,25.214
1921.00,25.158
1921.20,25.16
1921.40,25.226
1921.60,25.194
1921.80,25.178
1922.00,25.186
1922.20,25.214
1922.40,25.138
1922.60,25.18
1922.80,25.174
1923.00,25.278
1923.20,25.084
1923.40,25.254
1923.60,25.196
1923.80,25.144
1924.00,25.234
1924.20,25.148
1924.40,25.54
1924.60,25.166
1924.80,25.158
1925.00,25.174
1925.20,25.136
1925.40,25.226
1925.60,25.12
1925.80,25.226
1926.00,25.234
1926.20,25.114
1926.40,25.192
1926.60,25.16
1926.80,25.15
1927.00,25.112
1927.20,25.252
1927.40,25.172
1927.60,25.2
1927.80,25.166
1928.00,25.172
1928.20,25.178
1928.40,25.136
1928.60,25.29
1928.80,25.136
1929.00,25.172
1929.20,25.218
1929.40,25.134
1929.60,25.18
1929.80,25.142
1930.00,25.216
1930.20,25.164
1930.40,25.664
1930.60,24.644
1930.80,25.216
1931.00,25.128
1931.20,25.282
1931.40,25.084
1931.60,25.142
1931.80,25.164
1932.00,25.178
1932.20,25.178
1932.40,25.172
1932.60,25.23
1932.80,25.158
1933.00,25.17
1933.20,25.174
1933.40,25.216
1933.60,25.15
1933.80,25.134
1934.00,25.468
1934.20,25.166
1934.40,25.16
1934.60,25.158
1934.80,25.17
1935.00,25.122
1935.20,25.202
1935.40,25.266
1935.60,25.216
1935.80,25.138
1936.00,25.142
1936.20,25.166
1936.40,25.248
1936.60,25.174
1936.80,25.252
1937.00,25.172
1937.20,25.166
1937.40,25.15
1937.60,25.196
1937.80,25.156
1938.00,25.214
1938.20,25.208
1938.40,25.214
1938.60,25.164
1938.80,25.15
1939.00,25.204
1939.20,25.164
1939.40,25.31
1939.60,25.062
1939.80,25.188
1940.00,25.188
1940.20,25.2
1940.40,25.18
1940.60,25.192
1940.80,25.188
1941.00,25.304
1941.20,25.128
1941.40,25.12
1941.60,25.224
1941.80,25.158
1942.00,25.12
1942.20,25.218
1942.40,25.224
1942.60,25.158
1942.80,25.166
1943.00,25.18
1943.20,25.114
1943.40,25.23
1943.60,25.442
1943.80,25.192
1944.00,25.068
1944.20,25.158
1944.40,25.218
1944.60,25.104
1944.80,25.214
1945.00,25.254
1945.20,25.196
1945.40,25.142
1945.60,25.214
1945.80,25.138
1946.00,25.178
1946.20,25.122
1946.40,25.222
1946.60,25.186
1946.80,25.17
1947.00,25.182
1947.20,25.186
1947.40,25.136
1947.60,25.266
1947.80,25.112
1948.00,25.17
1948.20,25.172
1948.40,25.574
1948.60,24.704
1948.80,25.18
1949.00,25.268
1949.20,25.24
1949.40,25.098
1949.60,25.142
1949.80,25.208
1950.00,25.172
1950.20,25.122
1950.40,25.27
1950.60,25.134
1950.80,25.21
1951.00,25.17
1951.20,25.174
1951.40,25.192
1951.60,25.108
1951.80,25.314
1952.00,25.164
1952.20,25.204
1952.40,25.208
1952.60,25.186
1952.80,25.148
1953.00,25.2
1953.20,25.43
1953.40,25.196
1953.60,25.174
1953.80,25.18
1954.00,25.192
1954.20,25.192
1954.40,25.194
1954.60,25.15
1954.80,25.226
1955.00,25.17
1955.20,25.222
1955.40,25.106
1955.60,25.194
1955.80,25.322
1956.00,25.09
1956.20,25.226
1956.40,25.152
1956.60,25.17
1956.80,25.192
1957.00,25.164
1957.20,25.248
1957.40,25.196
1957.60,25.202
1957.80,25.16
1958.00,25.156
1958.20,25.214
1958.40,25.182
1958.60,25.2
1958.80,25.178
1959.00,25.196
1959.20,25.172
1959.40,25.138
1959.60,25.192
1959.80,25.188
1960.00,25.222
1960.20,25.166
1960.40,25.148
1960.60,25.188
1960.80,25.202
1961.00,25.142
1961.20,25.136
1961.40,25.254
1961.60,25.15
1961.80,25.164
1962.00,25.142
1962.20,25.17
1962.40,25.17
1962.60,25.174
1962.80,25.332
1963.00,25.196
1963.20,25.106
1963.40,25.178
1963.60,25.144
1963.80,25.202
1964.00,25.278
1964.20,25.072
1964.40,25.17
1964.60,25.164
1964.80,25.13
1965.00,25.178
1965.20,25.148
1965.40,25.246
1965.60,25.166
1965.80,25.202
1966.00,25.126
1966.20,25.142
1966.40,25.674
1966.60,24.68
1966.80,25.278
1967.00,25.17
1967.20,25.172
1967.40,25.17
1967.60,25.186
1967.80,25.18
1968.00,25.218
1968.20,25.234
1968.40,25.192
1968.60,25.192
1968.80,25.136
1969.00,25.216
1969.20,25.214
1969.40,25.142
1969.60,25.246
1969.80,25.21
1970.00,25.142
1970.20,25.186
1970.40,25.192
1970.60,25.192
1970.80,25.232
1971.00,25.234
1971.20,25.122
1971.40,25.17
1971.60,25.15
1971.80,25.188
1972.00,25.194
1972.20,25.62
1972.40,25.068
1972.60,25.17
1972.80,25.152
1973.00,25.204
1973.20,25.166
1973.40,25.15
1973.60,25.234
1973.80,25.24
1974.00,25.138
1974.20,25.222
1974.40,25.192
1974.60,25.152
1974.80,25.202
1975.00,25.21
1975.20,25.2
1975.40,25.18
1975.60,25.178
1975.80,25.164
1976.00,25.16
1976.20,25.126
1976.40,25.268
1976.60,25.166
1976.80,25.21
1977.00,25.15
1977.20,25.16
1977.40,25.17
1977.60,25.16
1977.80,25.328
1978.00,25.116
1978.20,25.164
1978.40,25.182
1978.60,25.174
1978.80,25.196
1979.00,25.208
1979.20,25.174
1979.40,25.194
1979.60,25.138
1979.80,25.144
1980.00,25.244
1980.20,25.138
1980.40,25.304
1980.60,25.104
1980.80,25.164
1981.00,25.174
1981.20,25.144
1981.40,25.214
1981.60,25.152
1981.80,25.482
1982.00,25.194
1982.20,25.148
1982.40,25.244
1982.60,25.15
1982.80,25.194
1983.00,25.094
1983.20,25.31
1983.40,25.17
1983.60,25.174
1983.80,25.16
1984.00,25.182
1984.20,25.186
1984.40,25.574
1984.60,24.828
1984.80,25.108
1985.00,25.252
1985.20,25.104
1985.40,25.216
1985.60,25.172
1985.80,25.156
1986.00,25.29
1986.20,25.134
1986.40,25.15
1986.60,25.238
1986.80,25.152
1987.00,25.186
1987.20,25.23
1987.40,25.164
1987.60,25.224
1987.80,25.148
1988.00,25.208
1988.20,25.204
1988.40,25.144
1988.60,25.344
1988.80,25.092
1989.00,25.192
1989.20,25.188
1989.40,25.166
1989.60,25.208
1989.80,25.2
1990.00,25.224
1990.20,25.192
1990.40,25.194
1990.60,25.13
1990.80,25.204
1991.00,25.16
1991.20,25.188
1991.40,25.42
1991.60,25.16
1991.80,25.208
1992.00,25.152
1992.20,25.196
1992.40,25.152
1992.60,25.182
1992.80,25.282
1993.00,25.142
1993.20,25.2
1993.40,25.148
1993.60,25.152
1993.80,25.202
1994.00,25.142
1994.20,25.276
1994.40,25.164
1994.60,25.16
1994.80,25.188
1995.00,25.12
1995.20,25.18
1995.40,25.21
1995.60,25.148
1995.80,25.178
1996.00,25.174
1996.20,25.148
1996.40,25.174
1996.60,25.172
1996.80,25.288
1997.00,25.174
1997.20,25.136
1997.40,25.16
1997.60,25.192
1997.80,25.172
1998.00,25.138
1998.20,25.248
1998.40,25.186
1998.60,25.164
1998.80,25.158
1999.00,25.216
1999.20,25.178
1999.40,25.138
1999.60,25.234
1999.80,25.148
2000.00,25.224
2000.20,25.128
2000.40,25.192
2000.60,25.116
2000.80,25.2
2001.00,25.52
2001.20,25.134
2001.40,25.18
2001.60,25.218
2001.80,25.218
2002.00,25.138
2002.20,25.15
2002.40,25.706
2002.60,24.764
2002.80,25.178
2003.00,25.16
2003.20,25.188
2003.40,25.194
2003.60,25.29
2003.80,25.158
2004.00,25.2
2004.20,25.202
2004.40,25.174
2004.60,25.224
2004.80,25.172
2005.00,25.332
2005.20,25.134
2005.40,25.186
2005.60,25.246
2005.80,25.134
2006.00,25.21
2006.20,25.15
2006.40,25.268
2006.60,25.23
2006.80,25.196
2007.00,25.144
2007.20,25.134
2007.40,25.172
2007.60,25.246
2007.80,25.204
2008.00,25.16
2008.20,25.192
2008.40,25.196
2008.60,25.112
2008.80,25.166
2009.00,25.202
2009.20,25.21
2009.40,25.192
2009.60,25.186
2009.80,25.194
2010.00,25.166
2010.20,25.194
2010.40,25.136
2010.60,25.52
2010.80,25.134
2011.00,25.158
2011.20,25.182
2011.40,25.24
2011.60,25.142
2011.80,25.194
2012.00,25.13
2012.20,25.196
2012.40,25.16
2012.60,25.142
2012.80,25.178
2013.00,25.192
2013.20,25.234
2013.40,25.2
2013.60,25.078
2013.80,25.244
2014.00,25.148
2014.20,25.1
2014.40,25.192
2014.60,25.266
2014.80,25.188
2015.00,25.104
2015.20,25.208
2015.40,25.148
2015.60,25.196
2015.80,25.138
2016.00,25.278
2016.20,25.158
2016.40,25.108
2016.60,25.188
2016.80,25.202
2017.00,25.18
2017.20,25.172
2017.40,25.262
2017.60,25.192
2017.80,25.196
2018.00,25.134
2018.20,25.2
2018.40,25.182
2018.60,25.21
2018.80,25.218
2019.00,25.204
2019.20,25.224
2019.40,25.164
2019.60,25.23
2019.80,25.178
2020.00,25.388
2020.20,25.106
2020.40,25.636
2020.60,24.738
2020.80,25.238
2021.00,25.196
2021.20,25.112
2021.40,25.27
2021.60,25.218
2021.80,25.16
2022.00,25.216
2022.20,25.142
2022.40,25.166
2022.60,25.15
2022.80,25.278
2023.00,25.16
2023.20,25.252
2023.40,25.142
2023.60,25.196
2023.80,25.152
2024.00,25.186
2024.20,25.244
2024.40,25.218
2024.60,25.152
2024.80,25.196
2025.00,25.174
2025.20,25.196
2025.40,25.208
2025.60,25.23
2025.80,25.192
2026.00,25.172
2026.20,25.18
2026.40,25.126
2026.60,25.186
2026.80,25.144
2027.00,25.27
2027.20,25.208
2027.40,25.094
2027.60,25.156
2027.80,25.222
2028.00,25.2
2028.20,25.284
2028.40,25.138
2028.60,25.12
2028.80,25.204
2029.00,25.208
2029.20,25.182
2029.40,25.18
2029.60,25.552
2029.80,25.12
2030.00,25.112
2030.20,25.148
2030.40,25.182
2030.60,25.092
2030.80,25.246
2031.00,25.252
2031.20,25.196
2031.40,25.094
2031.60,25.186
2031.80,25.134
2032.00,25.172
2032.20,25.148
2032.40,25.312
2032.60,25.138
2032.80,25.138
2033.00,25.18
2033.20,25.166
2033.40,25.202
2033.60,25.166
2033.80,25.254
2034.00,25.172
2034.20,25.192
2034.40,25.226
2034.60,25.15
2034.80,25.21
2035.00,25.134
2035.20,25.29
2035.40,25.18
2035.60,25.16
2035.80,25.216
2036.00,25.172
2036.20,25.196
2036.40,25.328
2036.60,25.108
2036.80,25.174
2037.00,25.196
2037.20,25.216
2037.40,25.166
2037.60,25.174
2037.80,25.282
2038.00,25.158
2038.20,25.214
2038.40,25.574
2038.60,24.748
2038.80,25.178
2039.00,25.216
2039.20,25.37
2039.40,25.254
2039.60,25.224
2039.80,25.126
2040.00,25.182
2040.20,25.156
2040.40,25.2
2040.60,25.34
2040.80,25.166
2041.00,25.16
2041.20,25.186
2041.40,25.116
2041.60,25.202
2041.80,25.188
2042.00,25.31
2042.20,25.17
2042.40,25.158
2042.60,25.16
2042.80,25.256
2043.00,25.172
2043.20,25.094
2043.40,25.266
2043.60,25.196
2043.80,25.182
2044.00,25.234
2044.20,25.114
2044.40,25.134
2044.60,25.318
2044.80,25.152
2045.00,25.148
2045.20,25.192
2045.40,25.16
2045.60,25.17
2045.80,25.204
2046.00,25.202
2046.20,25.21
2046.40,25.178
2046.60,25.12
2046.80,25.254
2047.00,25.104
2047.20,25.202
2047.40,25.256
2047.60,25.17
2047.80,25.172
2048.00,25.202
2048.20,25.188
2048.40,25.152
2048.60,25.104
2048.80,25.48
2049.00,25.17
2049.20,25.136
2049.40,25.15
2049.60,25.188
2049.80,25.208
2050.00,25.16
2050.20,25.312
2050.40,25.136
2050.60,25.152
2050.80,25.222
2051.00,25.136
2051.20,25.194
2051.40,25.192
2051.60,25.23
2051.80,25.128
2052.00,25.232
2052.20,25.122
2052.40,25.226
2052.60,25.274
2052.80,25.246
2053.00,25.16
2053.20,25.182
2053.40,25.224
2053.60,25.238
2053.80,25.094
2054.00,25.232
2054.20,25.268
2054.40,25.204
2054.60,25.142
2054.80,25.254
2055.00,25.164
2055.20,25.224
2055.40,25.174
2055.60,25.252
2055.80,25.196
2056.00,25.136
2056.20,25.188
2056.40,25.592
2056.60,24.746
2056.80,25.172
2057.00,25.256
2057.20,25.174
2057.40,25.17
2057.60,25.202
2057.80,25.248
2058.00,25.136
2058.20,25.246
2058.40,25.398
2058.60,25.192
2058.80,25.186
2059.00,25.188
2059.20,25.16
2059.40,25.24
2059.60,25.12
2059.80,25.252
2060.00,25.164
2060.20,25.226
2060.40,25.148
2060.60,25.172
2060.80,25.15
2061.00,25.322
2061.20,25.12
2061.40,25.164
2061.60,25.172
2061.80,25.152
2062.00,25.18
2062.20,25.196
2062.40,25.24
2062.60,25.196
2062.80,25.152
2063.00,25.172
2063.20,25.18
2063.40,25.126
2063.60,25.226
2063.80,25.158
2064.00,25.148
2064.20,25.24
2064.40,25.15
2064.60,25.246
2064.80,25.12
2065.00,25.192
2065.20,25.234
2065.40,25.214
2065.60,25.16
2065.80,25.106
2066.00,25.248
2066.20,25.1
2066.40,25.224
2066.60,25.246
2066.80,25.156
2067.00,25.214
2067.20,25.112
2067.40,25.186
2067.60,25.204
2067.80,25.148
2068.00,25.432
2068.20,25.15
2068.40,25.224
2068.60,25.148
2068.80,25.252
2069.00,25.106
2069.20,25.314
2069.40,25.136
2069.60,25.178
2069.80,25.226
2070.00,25.178
2070.20,25.182
2070.40,25.174
2070.60,25.274
2070.80,25.188
2071.00,25.186
2071.20,25.202
2071.40,25.148
2071.60,25.194
2071.80,25.17
2072.00,25.262
2072.20,25.138
2072.40,25.188
2072.60,25.214
2072.80,25.13
2073.00,25.238
2073.20,25.166
2073.40,25.24
2073.60,25.178
2073.80,25.156
2074.00,25.218
2074.20,25.158
2074.40,25.63
2074.60,24.73
2074.80,25.254
2075.00,25.204
2075.20,25.172
2075.40,25.234
2075.60,25.208
2075.80,25.136
2076.00,25.244
2076.20,25.196
2076.40,25.194
2076.60,25.166
2076.80,25.204
2077.00,25.12
2077.20,25.234
2077.40,25.56
2077.60,25.024
2077.80,25.17
2078.00,25.158
2078.20,25.172
2078.40,25.158
2078.60,25.178
2078.80,25.192
2079.00,25.29
2079.20,25.148
2079.40,25.15
2079.60,25.186
2079.80,25.142
2080.00,25.164
2080.20,25.244
2080.40,25.208
2080.60,25.15
2080.80,25.18
2081.00,25.218
2081.20,25.182
2081.40,25.15
2081.60,25.336
2081.80,25.194
2082.00,25.186
2082.20,25.116
2082.40,25.2
2082.60,25.134
2082.80,25.214
2083.00,25.284
2083.20,25.16
2083.40,25.128
2083.60,25.182
2083.80,25.202
2084.00,25.17
2084.20,25.188
2084.40,25.202
2084.60,25.21
2084.80,25.172
2085.00,25.182
2085.20,25.144
2085.40,25.196
2085.60,25.34
2085.80,25.13
2086.00,25.222
2086.20,25.17
2086.40,25.172
2086.60,25.188
2086.80,25.21
2087.00,25.526
2087.20,25.218
2087.40,25.174
2087.60,25.164
2087.80,25.222
2088.00,25.202
2088.20,25.13
2088.40,25.348
2088.60,25.138
2088.80,25.204
2089.00,25.166
2089.20,25.174
2089.40,25.188
2089.60,25.214
2089.80,25.23
2090.00,25.254
2090.20,25.188
2090.40,25.224
2090.60,25.178
2090.80,25.148
2091.00,25.108
2091.20,25.306
2091.40,25.216
2091.60,25.172
2091.80,25.158
2092.00,25.208
2092.40,25.168
2092.60,25.19
2092.80,25.202
2093.00,25.18
2093.20,25.132
2093.40,25.158
2093.60,25.316
2093.80,25.182
2094.00,25.232
2094.20,25.198
2094.40,25.18
2094.60,25.146
2094.80,25.158
2095.00,25.262
2095.20,25.198
2095.40,25.194
2095.60,25.188
2095.80,25.188
2096.00,25.18
2096.20,25.16
2096.40,25.474
2096.60,25.166
2096.80,25.182
2097.00,25.138
2097.20,25.188
2097.40,25.154
2097.60,25.166
2097.80,25.3
2098.00,25.136
2098.20,25.204
2098.40,25.194
2098.60,25.106
2098.80,25.232
2099.00,25.25
2099.20,25.206
2099.40,25.232
2099.60,25.176
2099.80,25.282
2100.00,25.158
2100.20,25.14
2100.40,25.212
2100.60,25.248
2100.80,25.174
2101.00,25.194
2101.20,25.176
2101.40,25.202
2101.60,25.21
2101.80,25.344
2102.00,25.152
2102.20,25.182
2102.40,25.24
2102.60,25.21
2102.80,25.158
2103.00,25.232
2103.20,25.254
2103.40,25.25
2103.60,25.176
2103.80,25.202
2104.00,25.194
2104.20,25.198
2104.40,25.224
2104.60,25.292
2104.80,25.144
2105.00,25.19
2105.20,25.25
2105.40,25.206
2105.60,25.18
2105.80,25.154
2106.00,25.556
2106.20,25.154
2106.40,25.216
2106.60,25.184
2106.80,25.162
2107.00,25.184
2107.20,25.21
2107.40,25.32
2107.60,25.594
2107.80,24.74
2108.00,25.152
2108.20,25.182
2108.40,25.226
2108.60,25.196
2108.80,25.22
2109.00,25.248
2109.20,25.15
2109.40,25.114
2109.60,25.218
2109.80,25.168
2110.00,25.322
2110.20,25.158
2110.40,25.124
2110.60,25.228
2110.80,25.166
2111.00,25.166
2111.20,25.184
2111.40,25.246
2111.60,25.194
2111.80,25.216
2112.00,25.154
2112.20,25.224
2112.40,25.19
2112.60,25.154
2112.80,25.238
2113.00,25.174
2113.20,25.212
2113.40,25.158
2113.60,25.206
2113.80,25.18
2114.00,25.16
2114.20,25.228
2114.40,25.176
2114.60,25.212
2114.80,25.194
2115.00,25.198
2115.20,25.242
2115.40,25.124
2115.60,25.488
2115.80,25.22
2116.00,25.154
2116.20,25.15
2116.40,25.18
2116.60,25.158
2116.80,25.272
2117.00,25.18
2117.20,25.194
2117.40,25.254
2117.60,25.196
2117.80,25.184
2118.00,25.21
2118.20,25.292
2118.40,25.198
2118.60,25.154
2118.80,25.25
2119.00,25.176
2119.20,25.198
2119.40,25.238
2119.60,25.234
2119.80,25.242
2120.00,25.16
2120.20,25.19
2120.40,25.22
2120.60,25.166
2120.80,25.176
2121.00,25.246
2121.20,25.218
2121.40,25.234
2121.60,25.152
2121.80,25.248
2122.00,25.162
2122.20,25.168
2122.40,25.292
2122.60,25.224
2122.80,25.166
2123.00,25.242
2123.20,25.212
2123.40,25.176
2123.60,25.196
2123.80,25.256
2124.00,25.198
2124.20,25.204
2124.40,25.198
2124.60,25.184
2124.80,25.206
2125.00,25.338
2125.20,25.24
2125.40,25.196
2125.60,25.568
2125.80,24.78
2126.00,25.154
2126.20,25.232
2126.40,25.308
2126.60,25.128
2126.80,25.232
2127.00,25.144
2127.20,25.198
2127.40,25.16
2127.60,25.176
2127.80,25.234
2128.00,25.238
2128.20,25.128
2128.40,25.172
2128.60,25.13
2128.80,25.206
2129.00,25.136
2129.20,25.262
2129.40,25.19
2129.60,25.242
2129.80,25.138
2130.00,25.172
2130.20,25.172
2130.40,25.182
2130.60,25.304
2130.80,25.158
2131.00,25.174
2131.20,25.234
2131.40,25.124
2131.60,25.242
2131.80,25.196
2132.00,25.268
2132.20,25.144
2132.40,25.18
2132.60,25.154
2132.80,25.198
2133.00,25.196
2133.20,25.342
2133.40,25.136
2133.60,25.18
2133.80,25.182
2134.00,25.216
2134.20,25.22
2134.40,25.184
2134.60,25.636
2134.80,25.026
2135.00,25.168
2135.20,25.168
2135.40,25.184
2135.60,25.218
2135.80,25.128
2136.00,25.3
2136.20,25.204
2136.40,25.172
2136.60,25.184
2136.80,25.204
2137.00,25.166
2137.20,25.194
2137.40,25.264
2137.60,25.15
2137.80,25.216
2138.00,25.132
2138.20,25.204
2138.40,25.162
2138.60,25.176
2138.80,25.306
2139.00,25.162
2139.20,25.316
2139.40,25.122
2139.60,25.228
2139.80,25.182
2140.00,25.168
2140.20,25.284
2140.40,25.216
2140.60,25.234
2140.80,25.182
2141.00,25.15
2141.20,25.176
2141.40,25.292
2141.60,25.152
2141.80,25.18
2142.00,25.25
2142.20,25.144
2142.40,25.22
2142.60,25.166
2142.80,25.294
2143.00,25.206
2143.20,25.166
2143.40,25.174
2143.60,25.624
2143.80,24.69
2144.00,25.204
2144.20,25.422
2144.40,25.21
2144.60,25.21
2144.80,25.226
2145.00,25.144
2145.20,25.204
2145.40,25.194
2145.60,25.254
2145.80,25.174
2146.00,25.158
2146.20,25.232
2146.40,25.11
2146.60,25.256
2146.80,25.152
2147.00,25.328
2147.20,25.132
2147.40,25.238
2147.60,25.154
2147.80,25.228
2148.00,25.166
2148.20,25.162
2148.40,25.256
2148.60,25.146
2148.80,25.228
2149.00,25.138
2149.20,25.21
2149.40,25.21
2149.60,25.292
2149.80,25.128
2150.00,25.232
2150.20,25.158
2150.40,25.218
2150.60,25.166
2150.80,25.154
2151.00,25.35
2151.20,25.106
2151.40,25.228
2151.60,25.168
2151.80,25.206
2152.00,25.21
2152.20,25.204
2152.40,25.256
2152.60,25.18
2152.80,25.212
2153.00,25.184
2153.20,25.19
2153.40,25.242
2153.60,25.196
2153.80,25.526
2154.00,25.15
2154.20,25.154
2154.40,25.248
2154.60,25.122
2154.80,25.238
2155.00,25.206
2155.20,25.246
2155.40,25.24
2155.60,25.196
2155.80,25.176
2156.00,25.22
2156.20,25.202
2156.40,25.184
2156.60,25.284
2156.80,25.176
2157.00,25.172
2157.20,25.216
2157.40,25.22
2157.60,25.19
2157.80,25.308
2158.00,25.124
2158.20,25.176
2158.40,25.21
2158.60,25.158
2158.80,25.234
2159.00,25.154
2159.20,25.286
2159.40,25.226
2159.60,25.154
2159.80,25.172
2160.00,25.22
2160.20,25.238
2160.40,25.138
2160.60,25.262
2160.80,25.194
2161.00,25.202
2161.20,25.198
2161.40,25.166
2161.60,25.63
2161.80,24.74
2162.00,25.262
2162.20,25.218
2162.40,25.176
2162.60,25.146
2162.80,25.22
2163.00,25.196
2163.20,25.152
2163.40,25.572
2163.60,25.114
2163.80,25.216
2164.00,25.154
2164.20,25.194
2164.40,25.128
2164.60,25.202
2164.80,25.18
2165.00,25.242
2165.20,25.172
2165.40,25.18
2165.60,25.132
2165.80,25.18
2166.00,25.298
2166.20,25.158
2166.40,25.162
2166.60,25.188
2166.80,25.242
2167.00,25.154
2167.20,25.172
2167.40,25.292
2167.60,25.182
2167.80,25.226
2168.00,25.176
2168.20,25.204
2168.40,25.19
2168.60,25.226
2168.80,25.25
2169.00,25.242
2169.20,25.202
2169.40,25.194
2169.60,25.18
2169.80,25.234
2170.00,25.226
2170.20,25.314
2170.40,25.13
2170.60,25.246
2170.80,25.204
2171.00,25.216
2171.20,25.168
2171.40,25.166
2171.60,25.352
2171.80,25.194
2172.00,25.216
2172.20,25.196
2172.40,25.176
2172.60,25.254
2172.80,25.198
2173.00,25.448
2173.20,25.172
2173.40,25.194
2173.60,25.158
2173.80,25.24
2174.00,25.18
2174.20,25.338
2174.40,25.13
2174.60,25.248
2174.80,25.154
2175.00,25.204
2175.20,25.166
2175.40,25.212
2175.60,25.282
2175.80,25.242
2176.00,25.14
2176.20,25.216
2176.40,25.168
2176.60,25.184
2176.80,25.24
2177.00,25.226
2177.20,25.198
2177.40,25.122
2177.60,25.212
2177.80,25.122
2178.00,25.196
2178.20,25.182
2178.40,25.242
2178.60,25.184
2178.80,25.184
2179.00,25.124
2179.20,25.256
2179.40,25.188
2179.60,25.598
2179.80,24.864
2180.00,25.202
2180.20,25.14
2180.40,25.218
2180.60,25.154
2180.80,25.204
2181.00,25.216
2181.20,25.224
2181.40,25.188
2181.60,25.182
2181.80,25.294
2182.00,25.172
2182.20,25.16
2182.40,25.57
2182.60,25.066
2182.80,25.204
2183.00,25.238
2183.20,25.132
2183.40,25.166
2183.60,25.182
2183.80,25.29
2184.00,25.238
2184.20,25.166
2184.40,25.158
2184.60,25.202
2184.80,25.204
2185.00,25.152
2185.20,25.246
2185.40,25.21
2185.60,25.194
2185.80,25.202
2186.00,25.204
2186.20,25.172
2186.40,25.15
2186.60,25.356
2186.80,25.176
2187.00,25.176
2187.20,25.268
2187.40,25.212
2187.60,25.158
2187.80,25.212
2188.00,25.292
2188.20,25.188
2188.40,25.176
2188.60,25.238
2188.80,25.162
2189.00,25.204
2189.20,25.184
2189.40,25.264
2189.60,25.182
2189.80,25.246
2190.00,25.182
2190.20,25.182
2190.40,25.212
2190.60,25.308
2190.80,25.19
2191.00,25.174
2191.20,25.204
2191.40,25.254
2191.60,25.216
2191.80,25.152
2192.00,25.58
2192.20,25.14
2192.40,25.234
2192.60,25.184
2192.80,25.15
2193.00,25.184
2193.20,25.272
2193.40,25.224
2193.60,25.132
2193.80,25.206
2194.00,25.174
2194.20,25.218
2194.40,25.202
2194.60,25.188
2194.80,25.3
2195.00,25.146
2195.20,25.196
2195.40,25.224
2195.60,25.204
2195.80,25.224
2196.00,25.216
2196.20,25.204
2196.40,25.196
2196.60,25.206
2196.80,25.146
2197.00,25.132
2197.20,25.204
2197.40,25.212
2197.60,25.712
2197.80,24.692
2198.00,25.146
2198.20,25.262
2198.40,25.13
2198.60,25.216
2198.80,25.298
2199.00,25.238
2199.20,25.11
2199.40,25.096
2199.60,25.238
2199.80,25.162
2200.00,25.15
2200.20,25.298
2200.40,25.19
2200.60,25.168
2200.80,25.194
2201.00,25.182
2201.20,25.168
2201.40,25.216
2201.60,25.438
2201.80,25.272
2202.00,25.166
2202.20,25.232
2202.40,25.124
2202.60,25.198
2202.80,25.216
2203.00,25.314
2203.20,25.162
2203.40,25.21
2203.60,25.22
2203.80,25.184
2204.00,25.218
2204.20,25.184
2204.40,25.228
2204.60,25.218
2204.80,25.212
2205.00,25.188
2205.20,25.174
2205.40,25.198
2205.60,25.212
2205.80,25.166
2206.00,25.21
2206.20,25.202
2206.40,25.202
2206.60,25.206
2206.80,25.268
2207.00,25.262
2207.20,25.16
2207.40,25.196
2207.60,25.242
2207.80,25.162
2208.00,25.166
2208.20,25.234
2208.40,25.206
2208.60,25.242
2208.80,25.204
2209.00,25.182
2209.20,25.194
2209.40,25.194
2209.60,25.172
2209.80,25.248
2210.00,25.18
2210.20,25.19
2210.40,25.172
2210.60,25.234
2210.80,25.18
2211.00,25.116
2211.20,25.546
2211.40,25.088
2211.60,25.228
2211.80,25.206
2212.00,25.21
2212.20,25.108
2212.40,25.206
2212.60,25.29
2212.80,25.174
2213.00,25.24
2213.20,25.114
2213.40,25.174
2213.60,25.198
2213.80,25.226
2214.00,25.25
2214.20,25.144
2214.40,25.168
2214.60,25.218
2214.80,25.188
2215.00,25.202
2215.20,25.298
2215.40,25.182
2215.60,25.608
2215.80,24.74
2216.00,25.212
2216.20,25.16
2216.40,25.194
2216.60,25.29
2216.80,25.14
2217.00,25.218
2217.20,25.202
2217.40,25.226
2217.60,25.146
2217.80,25.21
2218.00,25.278
2218.20,25.254
2218.40,25.182
2218.60,25.21
2218.80,25.226
2219.00,25.144
2219.20,25.196
2219.40,25.32
2219.60,25.158
2219.80,25.26
2220.00,25.158
2220.20,25.232
2220.40,25.176
2220.60,25.174
2220.80,25.54
2221.00,25.196
2221.20,25.196
2221.40,25.21
2221.60,25.168
2221.80,25.276
2222.00,25.216
2222.20,25.166
2222.40,25.238
2222.60,25.206
2222.80,25.176
2223.00,25.242
2223.20,25.184
2223.40,25.374
2223.60,25.166
2223.80,25.146
2224.00,25.21
2224.20,25.162
2224.40,25.268
2224.60,25.166
2224.80,25.224
2225.00,25.204
2225.20,25.144
2225.40,25.254
2225.60,25.216
2225.80,25.184
2226.00,25.138
2226.20,25.278
2226.40,25.196
2226.60,25.194
2226.80,25.158
2227.00,25.202
2227.20,25.184
2227.40,25.21
2227.60,25.276
2227.80,25.138
2228.00,25.234
2228.20,25.228
2228.40,25.13
2228.60,25.196
2228.80,25.202
2229.00,25.25
2229.20,25.138
2229.40,25.232
2229.60,25.144
2229.80,25.232
2230.00,25.158
2230.20,25.338
2230.40,25.22
2230.60,25.122
2230.80,25.188
2231.00,25.184
2231.20,25.19
2231.40,25.22
2231.60,25.294
2231.80,25.146
2232.00,25.184
2232.20,25.202
2232.40,25.168
2232.60,25.196
2232.80,25.118
2233.00,25.276
2233.20,25.188
2233.40,25.218
2233.60,25.584
2233.80,24.72
2234.00,25.152
2234.20,25.168
2234.40,25.278
2234.60,25.194
2234.80,25.15
2235.00,25.284
2235.20,25.16
2235.40,25.202
2235.60,25.238
2235.80,25.298
2236.00,25.166
2236.20,25.234
2236.40,25.216
2236.60,25.27
2236.80,25.124
2237.00,25.232
2237.20,25.246
2237.40,25.25
2237.60,25.138
2237.80,25.206
2238.00,25.308
2238.20,25.146
2238.40,25.29
2238.60,25.132
2238.80,25.25
2239.00,25.196
2239.20,25.22
2239.40,25.242
2239.60,25.262
2239.80,25.688
2240.00,25.108
2240.20,25.242
2240.40,25.184
2240.60,25.18
2240.80,25.272
2241.00,25.16
2241.20,25.268
2241.40,25.198
2241.60,25.146
2241.80,25.268
2242.00,25.088
2242.20,25.242
2242.40,25.194
2242.60,25.29
2242.80,25.184
2243.00,25.146
2243.20,25.246
2243.40,25.132
2243.60,25.206
2243.80,25.218
2244.00,25.27
2244.20,25.144
2244.40,25.16
2244.60,25.184
2244.80,25.174
2245.00,25.234
2245.20,25.194
2245.40,25.248
2245.60,25.19
2245.80,25.184
2246.00,25.146
2246.20,25.138
2246.40,25.224
2246.60,25.254
2246.80,25.19
2247.00,25.188
2247.20,25.188
2247.40,25.198
2247.60,25.132
2247.80,25.234
2248.00,25.286
2248.20,25.248
2248.40,25.132
2248.60,25.242
2248.80,25.146
2249.00,25.172
2249.20,25.226
2249.40,25.364
2249.60,25.298
2249.80,25.152
2250.00,25.242
2250.20,25.158
2250.40,25.218
2250.60,25.166
2250.80,25.264
2251.00,25.176
2251.20,25.124
2251.40,25.218
2251.60,25.616
2251.80,24.78
2252.00,25.184
2252.20,25.25
2252.40,25.194
2252.60,25.168
2252.80,25.242
2253.00,25.176
2253.20,25.226
2253.40,25.19
2253.60,25.292
2253.80,25.174
2254.00,25.18
2254.20,25.198
2254.40,25.234
2254.60,25.152
2254.80,25.286
2255.00,25.168
2255.20,25.188
2255.40,25.172
2255.60,25.224
2255.80,25.166
2256.00,25.188
2256.20,25.322
2256.40,25.158
2256.60,25.198
2256.80,25.26
2257.00,25.16
2257.20,25.182
2257.40,25.216
2257.60,25.276
2257.80,25.202
2258.00,25.206
2258.20,25.16
2258.40,25.166
2258.60,25.22
2258.80,25.202
2259.00,25.48
2259.20,25.132
2259.40,25.158
2259.60,25.18
2259.80,25.184
2260.00,25.114
2260.20,25.248
2260.40,25.284
2260.60,25.15
2260.80,25.202
2261.00,25.184
2261.20,25.124
2261.40,25.234
2261.60,25.246
2261.80,25.21
2262.00,25.22
2262.20,25.162
2262.40,25.196
2262.60,25.174
2262.80,25.224
2263.00,25.246
2263.20,25.232
2263.40,25.162
2263.60,25.166
2263.80,25.188
2264.00,25.172
2264.20,25.144
2264.40,25.356
2264.60,25.16
2264.80,25.198
2265.00,25.248
2265.20,25.13
2265.40,25.166
2265.60,25.248
2265.80,25.254
2266.00,25.176
2266.20,25.176
2266.40,25.218
2266.60,25.136
2266.80,25.268
2267.00,25.168
2267.20,25.294
2267.40,25.176
2267.60,25.246
2267.80,25.162
2268.00,25.218
2268.20,25.162
2268.40,25.25
2268.60,25.546
2268.80,25.132
2269.00,25.238
2269.20,25.232
2269.40,25.182
2269.60,25.674
2269.80,24.77
2270.00,25.33
2270.20,25.168
2270.40,25.174
2270.60,25.218
2270.80,25.18
2271.00,25.22
2271.20,25.328
2271.40,25.138
2271.60,25.204
2271.80,25.232
2272.00,25.176
2272.20,25.202
2272.40,25.216
2272.60,25.304
2272.80,25.22
2273.00,25.194
2273.20,25.182
2273.40,25.234
2273.60,25.196
2273.80,25.08
2274.00,25.226
2274.20,25.204
2274.40,25.268
2274.60,25.174
2274.80,25.166
2275.00,25.246
2275.20,25.184
2275.40,25.234
2275.60,25.18
2275.80,25.11
2276.00,25.234
2276.20,25.166
2276.40,25.238
2276.60,25.18
2276.80,25.278
2277.00,25.202
